#  wavelength    Flux         Std.Dev.
#  [Angstroem]   [F(5500)]    [N/A]

  6270.029   60842.0682    0.1
  6270.047   61298.9463    0.1
  6270.064   61677.3261    0.1
  6270.081   62041.2268    0.1
  6270.099   62332.4360    0.1
  6270.116   62538.8665    0.1
  6270.134   62772.4458    0.1
  6270.151   62939.4357    0.1
  6270.168   63019.4914    0.1
  6270.186   63027.5641    0.1
  6270.203   63081.8593    0.1
  6270.221   63031.1630    0.1
  6270.238   62830.5429    0.1
  6270.256   62778.5689    0.1
  6270.273   62597.4334    0.1
  6270.290   62317.0734    0.1
  6270.308   61880.6864    0.1
  6270.325   61393.5543    0.1
  6270.343   60978.3092    0.1
  6270.360   60442.6206    0.1
  6270.377   59860.3263    0.1
  6270.395   59230.9860    0.1
  6270.412   58456.2878    0.1
  6270.430   57852.8446    0.1
  6270.447   56937.0538    0.1
  6270.464   55982.2993    0.1
  6270.482   55073.1876    0.1
  6270.499   54131.9839    0.1
  6270.517   53346.6083    0.1
  6270.534   52440.7734    0.1
  6270.551   51560.9566    0.1
  6270.569   50958.3298    0.1
  6270.586   50272.7449    0.1
  6270.604   49722.2209    0.1
  6270.621   49384.2068    0.1
  6270.639   49268.2740    0.1
  6270.656   49241.9616    0.1
  6270.673   49352.4312    0.1
  6270.691   49581.9468    0.1
  6270.708   49923.1589    0.1
  6270.726   50488.0327    0.1
  6270.743   50993.0683    0.1
  6270.760   51859.9760    0.1
  6270.778   52800.1475    0.1
  6270.795   53610.9252    0.1
  6270.813   54628.4230    0.1
  6270.830   55552.0967    0.1
  6270.847   56533.2734    0.1
  6270.865   57509.8235    0.1
  6270.882   58229.8576    0.1
  6270.900   59163.8783    0.1
  6270.917   60098.1789    0.1
  6270.935   60738.1189    0.1
  6270.952   61447.5661    0.1
  6270.969   61966.4337    0.1
  6270.987   62389.4496    0.1
  6271.004   62762.7005    0.1
  6271.022   62966.2182    0.1
  6271.039   63291.7904    0.1
  6271.056   63555.4505    0.1
  6271.074   63754.3143    0.1
  6271.091   63961.7021    0.1
  6271.109   64096.9246    0.1
  6271.126   64264.0319    0.1
  6271.143   64508.1897    0.1
  6271.161   64586.0116    0.1
  6271.178   64703.7356    0.1
  6271.196   64760.4438    0.1
  6271.213   64711.7097    0.1
  6271.231   64635.1599    0.1
  6271.248   64555.2943    0.1
  6271.265   64464.9074    0.1
  6271.283   64381.8124    0.1
  6271.300   64225.4367    0.1
  6271.318   63865.0210    0.1
  6271.335   63508.1979    0.1
  6271.352   63117.4730    0.1
  6271.370   62695.3683    0.1
  6271.387   62385.0367    0.1
  6271.405   61844.9818    0.1
  6271.422   61231.9312    0.1
  6271.439   60789.3288    0.1
  6271.457   60286.1716    0.1
  6271.474   59842.4652    0.1
  6271.492   59194.5748    0.1
  6271.509   58544.0000    0.1
  6271.527   57990.0579    0.1
  6271.544   57363.2126    0.1
  6271.561   56857.8582    0.1
  6271.579   56304.1427    0.1
  6271.596   55736.4898    0.1
  6271.614   55409.7286    0.1
  6271.631   55071.1873    0.1
  6271.648   54824.0891    0.1
  6271.666   54705.3927    0.1
  6271.683   54642.7178    0.1
  6271.701   54671.9160    0.1
  6271.718   54867.8086    0.1
  6271.735   55228.2731    0.1
  6271.753   55584.4277    0.1
  6271.770   56089.3530    0.1
  6271.788   56567.9426    0.1
  6271.805   56917.1547    0.1
  6271.823   57431.5545    0.1
  6271.840   57789.0442    0.1
  6271.857   58313.0320    0.1
  6271.875   58852.7973    0.1
  6271.892   59200.9572    0.1
  6271.910   59527.8717    0.1
  6271.927   59715.6710    0.1
  6271.944   59854.4551    0.1
  6271.962   60052.5040    0.1
  6271.979   60185.4586    0.1
  6271.997   60238.8345    0.1
  6272.014   60204.3537    0.1
  6272.031   60145.5804    0.1
  6272.049   60046.5959    0.1
  6272.066   59986.6355    0.1
  6272.084   59839.1149    0.1
  6272.101   59716.6350    0.1
  6272.119   59788.0226    0.1
  6272.136   59861.2386    0.1
  6272.153   59871.8895    0.1
  6272.171   59916.8107    0.1
  6272.188   59991.0490    0.1
  6272.206   60054.0214    0.1
  6272.223   60172.9943    0.1
  6272.240   60391.1869    0.1
  6272.258   60614.0807    0.1
  6272.275   60911.3276    0.1
  6272.293   61170.9708    0.1
  6272.310   61420.1636    0.1
  6272.327   61737.3461    0.1
  6272.345   61947.6682    0.1
  6272.362   62252.5476    0.1
  6272.380   62536.6355    0.1
  6272.397   62658.0951    0.1
  6272.415   62890.6586    0.1
  6272.432   63118.8120    0.1
  6272.449   63352.5259    0.1
  6272.467   63646.7492    0.1
  6272.484   63702.4090    0.1
  6272.502   63915.2782    0.1
  6272.519   64118.7224    0.1
  6272.536   64218.4693    0.1
  6272.554   64265.0059    0.1
  6272.571   64224.7403    0.1
  6272.589   64206.8101    0.1
  6272.606   64123.2653    0.1
  6272.623   64020.5468    0.1
  6272.641   64049.3396    0.1
  6272.658   64001.2820    0.1
  6272.676   63892.9532    0.1
  6272.693   63827.0299    0.1
  6272.710   63843.4576    0.1
  6272.728   63870.0256    0.1
  6272.745   63936.3590    0.1
  6272.763   64034.8483    0.1
  6272.780   64051.2990    0.1
  6272.798   64002.0506    0.1
  6272.815   63905.3284    0.1
  6272.832   63761.3996    0.1
  6272.850   63617.6358    0.1
  6272.867   63479.0120    0.1
  6272.885   63347.6308    0.1
  6272.902   63127.2559    0.1
  6272.919   62875.2480    0.1
  6272.937   62722.2653    0.1
  6272.954   62547.9589    0.1
  6272.972   62421.3962    0.1
  6272.989   62438.5708    0.1
  6273.006   62317.9524    0.1
  6273.024   62128.0136    0.1
  6273.041   62135.6331    0.1
  6273.059   62109.5723    0.1
  6273.076   62129.7761    0.1
  6273.094   62165.4282    0.1
  6273.111   62278.5570    0.1
  6273.128   62388.5761    0.1
  6273.146   62436.3720    0.1
  6273.163   62510.0978    0.1
  6273.181   62607.9738    0.1
  6273.198   62910.6001    0.1
  6273.215   63055.8107    0.1
  6273.233   63265.5121    0.1
  6273.250   63425.4476    0.1
  6273.268   63560.5453    0.1
  6273.285   63615.9469    0.1
  6273.302   63520.4144    0.1
  6273.320   63534.9465    0.1
  6273.337   63469.3674    0.1
  6273.355   63292.5199    0.1
  6273.372   63141.9830    0.1
  6273.390   62756.8297    0.1
  6273.407   62456.4360    0.1
  6273.424   62071.9726    0.1
  6273.442   61707.2529    0.1
  6273.459   61447.9472    0.1
  6273.477   61007.2272    0.1
  6273.494   60490.9676    0.1
  6273.511   59836.5661    0.1
  6273.529   59028.8522    0.1
  6273.546   58356.2113    0.1
  6273.564   57387.3362    0.1
  6273.581   56368.2654    0.1
  6273.598   55436.5867    0.1
  6273.616   54248.5087    0.1
  6273.633   53135.9013    0.1
  6273.651   51806.8901    0.1
  6273.668   50354.0898    0.1
  6273.686   49369.8817    0.1
  6273.703   48196.0467    0.1
  6273.720   47211.2434    0.1
  6273.738   46492.8060    0.1
  6273.755   45825.6689    0.1
  6273.773   45491.2712    0.1
  6273.790   45426.0299    0.1
  6273.807   45588.2903    0.1
  6273.825   45896.6808    0.1
  6273.842   46594.0915    0.1
  6273.860   47499.1001    0.1
  6273.877   48402.5862    0.1
  6273.894   49571.8495    0.1
  6273.912   50643.7067    0.1
  6273.929   51968.8423    0.1
  6273.947   53387.7921    0.1
  6273.964   54388.5501    0.1
  6273.982   55699.2464    0.1
  6273.999   56957.7853    0.1
  6274.016   57876.5504    0.1
  6274.034   58950.9036    0.1
  6274.051   59865.8132    0.1
  6274.069   60650.2480    0.1
  6274.086   61438.2223    0.1
  6274.103   61815.6984    0.1
  6274.121   62248.3812    0.1
  6274.138   62370.3009    0.1
  6274.156   62373.4263    0.1
  6274.173   62358.5124    0.1
  6274.190   62362.6699    0.1
  6274.208   62279.4494    0.1
  6274.225   61905.9604    0.1
  6274.243   61767.5363    0.1
  6274.260   61742.9148    0.1
  6274.278   61837.5257    0.1
  6274.295   61776.4194    0.1
  6274.312   61795.1702    0.1
  6274.330   61771.6272    0.1
  6274.347   61795.4152    0.1
  6274.365   61842.3894    0.1
  6274.382   62023.2191    0.1
  6274.399   62173.5109    0.1
  6274.417   62197.2492    0.1
  6274.434   62524.9095    0.1
  6274.452   62785.4171    0.1
  6274.469   62792.9973    0.1
  6274.486   62699.0259    0.1
  6274.504   62908.3628    0.1
  6274.521   63194.0700    0.1
  6274.539   63231.4430    0.1
  6274.556   62945.2186    0.1
  6274.573   62947.6607    0.1
  6274.591   62742.5005    0.1
  6274.608   62519.5072    0.1
  6274.626   62025.9244    0.1
  6274.643   61675.0252    0.1
  6274.661   61483.7484    0.1
  6274.678   61050.2357    0.1
  6274.695   60463.3975    0.1
  6274.713   59894.6815    0.1
  6274.730   59077.4678    0.1
  6274.748   58643.8344    0.1
  6274.765   58177.1150    0.1
  6274.782   57234.4514    0.1
  6274.800   56468.3486    0.1
  6274.817   55190.1373    0.1
  6274.835   53819.8604    0.1
  6274.852   52788.2067    0.1
  6274.869   51242.5975    0.1
  6274.887   50114.6843    0.1
  6274.904   48838.7646    0.1
  6274.922   47403.3431    0.1
  6274.939   46506.9937    0.1
  6274.957   45337.8781    0.1
  6274.974   44384.3500    0.1
  6274.991   43785.6500    0.1
  6275.009   43242.2821    0.1
  6275.026   42977.6089    0.1
  6275.044   42730.5213    0.1
  6275.061   42608.7638    0.1
  6275.078   42861.0083    0.1
  6275.096   43150.5344    0.1
  6275.113   43476.5154    0.1
  6275.131   43898.0896    0.1
  6275.148   44614.2485    0.1
  6275.165   45263.1274    0.1
  6275.183   46055.8520    0.1
  6275.200   47073.7452    0.1
  6275.218   47742.4939    0.1
  6275.235   48875.1927    0.1
  6275.253   50100.8276    0.1
  6275.270   51102.8912    0.1
  6275.287   52406.8986    0.1
  6275.305   53302.8928    0.1
  6275.322   54547.6206    0.1
  6275.340   55978.0170    0.1
  6275.357   56777.6614    0.1
  6275.374   57967.6036    0.1
  6275.392   59253.2475    0.1
  6275.409   60166.5177    0.1
  6275.427   61290.9690    0.1
  6275.444   62040.4287    0.1
  6275.461   62597.4324    0.1
  6275.479   63098.3359    0.1
  6275.496   63444.4118    0.1
  6275.514   63721.1075    0.1
  6275.531   63849.5797    0.1
  6275.549   64109.3750    0.1
  6275.566   64210.2742    0.1
  6275.583   64097.3799    0.1
  6275.601   64024.4644    0.1
  6275.618   63730.8262    0.1
  6275.636   63463.9837    0.1
  6275.653   63208.6125    0.1
  6275.670   62924.7895    0.1
  6275.688   62594.7291    0.1
  6275.705   62251.7619    0.1
  6275.723   62045.8337    0.1
  6275.740   61780.7386    0.1
  6275.757   61526.4148    0.1
  6275.775   61349.0675    0.1
  6275.792   61022.9563    0.1
  6275.810   60616.8402    0.1
  6275.827   60345.8798    0.1
  6275.845   60117.1567    0.1
  6275.862   59848.7104    0.1
  6275.879   59724.1310    0.1
  6275.897   59426.9359    0.1
  6275.914   59336.5209    0.1
  6275.932   59295.0042    0.1
  6275.949   59151.5084    0.1
  6275.966   58805.5393    0.1
  6275.984   58654.2400    0.1
  6276.001   58607.0639    0.1
  6276.019   58477.9582    0.1
  6276.036   58281.3248    0.1
  6276.053   57911.8596    0.1
  6276.071   57961.5785    0.1
  6276.088   57659.1003    0.1
  6276.106   57452.4038    0.1
  6276.123   57498.3325    0.1
  6276.141   57733.9336    0.1
  6276.158   57713.8250    0.1
  6276.175   57714.6143    0.1
  6276.193   57734.7495    0.1
  6276.210   57722.0982    0.1
  6276.228   57784.3308    0.1
  6276.245   57869.4286    0.1
  6276.262   57980.5184    0.1
  6276.280   58208.1663    0.1
  6276.297   58476.3252    0.1
  6276.315   58744.4203    0.1
  6276.332   58868.0041    0.1
  6276.349   59063.0771    0.1
  6276.367   59371.8823    0.1
  6276.384   59630.3457    0.1
  6276.402   59697.9972    0.1
  6276.419   59674.7182    0.1
  6276.437   59555.9501    0.1
  6276.454   59522.4875    0.1
  6276.471   59375.4953    0.1
  6276.489   59140.0345    0.1
  6276.506   58757.1061    0.1
  6276.524   58342.1706    0.1
  6276.541   57813.2290    0.1
  6276.558   57160.0987    0.1
  6276.576   56762.0872    0.1
  6276.593   56282.5279    0.1
  6276.611   55317.7372    0.1
  6276.628   55228.9498    0.1
  6276.645   54635.7468    0.1
  6276.663   54400.2428    0.1
  6276.680   54362.0133    0.1
  6276.698   54404.0459    0.1
  6276.715   54458.4218    0.1
  6276.732   54572.2756    0.1
  6276.750   54807.5692    0.1
  6276.767   55236.7274    0.1
  6276.785   55746.4576    0.1
  6276.802   56297.5718    0.1
  6276.820   57083.8523    0.1
  6276.837   57713.1111    0.1
  6276.854   58188.5601    0.1
  6276.872   58767.0564    0.1
  6276.889   59390.3929    0.1
  6276.907   59651.5231    0.1
  6276.924   60178.6106    0.1
  6276.941   60676.6945    0.1
  6276.959   60778.4877    0.1
  6276.976   60979.4069    0.1
  6276.994   61000.0962    0.1
  6277.011   61105.9703    0.1
  6277.028   61284.1768    0.1
  6277.046   61020.0074    0.1
  6277.063   60783.2402    0.1
  6277.081   60241.0247    0.1
  6277.098   59591.1932    0.1
  6277.116   57694.9649    0.1
  6277.133   55209.1940    0.1
  6277.150   52908.8213    0.1
  6277.168   50743.3407    0.1
  6277.185   50017.9724    0.1
  6277.203   51050.7000    0.1
  6277.220   53348.0829    0.1
  6277.237   55409.1379    0.1
  6277.255   57831.6625    0.1
  6277.272   59960.5923    0.1
  6277.290   60601.7294    0.1
  6277.307   60607.9617    0.1
  6277.324   59663.4727    0.1
  6277.342   57948.9958    0.1
  6277.359   55350.3732    0.1
  6277.377   53158.8150    0.1
  6277.394   52272.5944    0.1
  6277.412   52990.7179    0.1
  6277.429   54728.3823    0.1
  6277.446   56775.4144    0.1
  6277.464   57959.7430    0.1
  6277.481   57814.1145    0.1
  6277.499   57376.7445    0.1
  6277.516   56819.7710    0.1
  6277.533   56713.7107    0.1
  6277.551   56887.1953    0.1
  6277.568   57202.7418    0.1
  6277.586   57396.6771    0.1
  6277.603   57617.6046    0.1
  6277.620   57313.5026    0.1
  6277.638   56748.8353    0.1
  6277.655   56271.2400    0.1
  6277.673   56072.8761    0.1
  6277.690   55658.3887    0.1
  6277.708   55317.6665    0.1
  6277.725   55053.7060    0.1
  6277.742   54809.2997    0.1
  6277.760   54458.9714    0.1
  6277.777   54065.7296    0.1
  6277.795   53346.1273    0.1
  6277.812   52785.4228    0.1
  6277.829   50845.5796    0.1
  6277.847   48453.5607    0.1
  6277.864   45799.0646    0.1
  6277.882   43954.7210    0.1
  6277.899   44365.8737    0.1
  6277.916   46138.4582    0.1
  6277.934   48397.4918    0.1
  6277.951   49327.9146    0.1
  6277.969   49561.0050    0.1
  6277.986   48819.4279    0.1
  6278.004   48311.3145    0.1
  6278.021   48547.8785    0.1
  6278.038   49522.3616    0.1
  6278.056   51378.5445    0.1
  6278.073   53652.7708    0.1
  6278.091   55282.0787    0.1
  6278.108   57165.0050    0.1
  6278.125   58689.0487    0.1
  6278.143   58847.4917    0.1
  6278.160   58306.1335    0.1
  6278.178   56571.6526    0.1
  6278.195   55091.7897    0.1
  6278.212   54630.7415    0.1
  6278.230   55769.1195    0.1
  6278.247   58144.7249    0.1
  6278.265   61131.6266    0.1
  6278.282   63092.9055    0.1
  6278.300   64423.2458    0.1
  6278.317   64723.0529    0.1
  6278.334   64047.4064    0.1
  6278.352   63768.4093    0.1
  6278.369   63955.2592    0.1
  6278.387   64369.7472    0.1
  6278.404   65113.3097    0.1
  6278.421   65511.7900    0.1
  6278.439   65903.2706    0.1
  6278.456   65668.6427    0.1
  6278.474   65282.7486    0.1
  6278.491   64444.5102    0.1
  6278.508   63374.7458    0.1
  6278.526   62546.2204    0.1
  6278.543   60888.1792    0.1
  6278.561   59106.0380    0.1
  6278.578   57014.4247    0.1
  6278.595   53323.9172    0.1
  6278.613   49632.0137    0.1
  6278.630   45043.4194    0.1
  6278.648   40971.8484    0.1
  6278.665   39598.0684    0.1
  6278.683   40257.0210    0.1
  6278.700   42857.4868    0.1
  6278.717   46450.8916    0.1
  6278.735   51399.7361    0.1
  6278.752   55510.6080    0.1
  6278.770   58353.1624    0.1
  6278.787   60670.7708    0.1
  6278.804   61435.1290    0.1
  6278.822   62186.7858    0.1
  6278.839   62581.0577    0.1
  6278.857   62506.5000    0.1
  6278.874   62465.1685    0.1
  6278.891   62028.5441    0.1
  6278.909   61449.2474    0.1
  6278.926   60723.9154    0.1
  6278.944   60394.8230    0.1
  6278.961   60713.3502    0.1
  6278.979   61459.3920    0.1
  6278.996   62254.4264    0.1
  6279.013   63097.5831    0.1
  6279.031   63779.5506    0.1
  6279.048   64139.5488    0.1
  6279.066   64362.4602    0.1
  6279.083   64425.8262    0.1
  6279.100   64529.2551    0.1
  6279.118   64596.0569    0.1
  6279.135   64691.8244    0.1
  6279.153   65034.5448    0.1
  6279.170   65310.2263    0.1
  6279.187   65393.4105    0.1
  6279.205   65550.8531    0.1
  6279.222   65858.4308    0.1
  6279.240   65916.7234    0.1
  6279.257   66012.0369    0.1
  6279.275   65939.2581    0.1
  6279.292   65849.0868    0.1
  6279.309   65785.1179    0.1
  6279.327   65797.1541    0.1
  6279.344   65401.0623    0.1
  6279.362   64455.3335    0.1
  6279.379   63341.6039    0.1
  6279.396   60634.9862    0.1
  6279.414   56435.8619    0.1
  6279.431   53505.4102    0.1
  6279.449   51417.1258    0.1
  6279.466   51499.5089    0.1
  6279.483   53669.5714    0.1
  6279.501   57005.8134    0.1
  6279.518   59703.8843    0.1
  6279.536   61061.8262    0.1
  6279.553   61688.6630    0.1
  6279.571   61479.6536    0.1
  6279.588   60487.7882    0.1
  6279.605   58389.5036    0.1
  6279.623   55821.4416    0.1
  6279.640   51666.2174    0.1
  6279.658   47651.0402    0.1
  6279.675   46602.5596    0.1
  6279.692   47745.9583    0.1
  6279.710   51020.7901    0.1
  6279.727   54588.6304    0.1
  6279.745   58192.3070    0.1
  6279.762   59746.9408    0.1
  6279.779   60768.3519    0.1
  6279.797   61362.4294    0.1
  6279.814   61712.9558    0.1
  6279.832   62198.8112    0.1
  6279.849   62563.5088    0.1
  6279.867   62959.3529    0.1
  6279.884   63164.4873    0.1
  6279.901   63107.2504    0.1
  6279.919   63241.7080    0.1
  6279.936   63036.3042    0.1
  6279.954   62772.7279    0.1
  6279.971   62261.3615    0.1
  6279.988   61608.1901    0.1
  6280.006   60854.0046    0.1
  6280.023   60099.1976    0.1
  6280.041   58986.6170    0.1
  6280.058   58117.9530    0.1
  6280.075   57118.5679    0.1
  6280.093   56365.6384    0.1
  6280.110   55905.0735    0.1
  6280.128   55174.6888    0.1
  6280.145   54873.1042    0.1
  6280.163   54839.2467    0.1
  6280.180   54710.4070    0.1
  6280.197   54554.3926    0.1
  6280.215   54589.5252    0.1
  6280.232   54715.2251    0.1
  6280.250   54785.7467    0.1
  6280.267   54987.9018    0.1
  6280.284   55346.4466    0.1
  6280.302   55627.1454    0.1
  6280.319   55874.2175    0.1
  6280.337   56009.4464    0.1
  6280.354   56161.6259    0.1
  6280.371   56053.3199    0.1
  6280.389   55589.3608    0.1
  6280.406   54025.5210    0.1
  6280.424   51287.2079    0.1
  6280.441   48803.7847    0.1
  6280.458   46271.6157    0.1
  6280.476   45972.9365    0.1
  6280.493   47382.6422    0.1
  6280.511   50356.1143    0.1
  6280.528   53504.2957    0.1
  6280.546   55440.8797    0.1
  6280.563   56715.7944    0.1
  6280.580   56837.8894    0.1
  6280.598   56822.1425    0.1
  6280.615   56556.0416    0.1
  6280.633   56209.2817    0.1
  6280.650   55440.6705    0.1
  6280.667   54445.4156    0.1
  6280.685   53564.9979    0.1
  6280.702   52378.5319    0.1
  6280.720   51165.3729    0.1
  6280.737   50117.0870    0.1
  6280.754   48617.5161    0.1
  6280.772   47270.0139    0.1
  6280.789   45738.0971    0.1
  6280.807   44004.2889    0.1
  6280.824   42580.3734    0.1
  6280.842   40811.0846    0.1
  6280.859   38762.0954    0.1
  6280.876   37520.6726    0.1
  6280.894   35294.6362    0.1
  6280.911   32640.4723    0.1
  6280.929   30172.4525    0.1
  6280.946   27373.9195    0.1
  6280.963   25898.8662    0.1
  6280.981   25957.3524    0.1
  6280.998   27230.0427    0.1
  6281.016   28802.7994    0.1
  6281.033   30713.7012    0.1
  6281.050   32431.2742    0.1
  6281.068   33184.3682    0.1
  6281.085   34079.1801    0.1
  6281.103   34923.7069    0.1
  6281.120   35499.0828    0.1
  6281.138   36233.0034    0.1
  6281.155   37038.7508    0.1
  6281.172   37848.7746    0.1
  6281.190   39099.3986    0.1
