#  wavelength    Flux         Std.Dev.
#  [Angstroem]   [F(5500)]    [N/A]

  6180.013   63195.9606    0.1
  6180.030   62999.6704    0.1
  6180.048   62874.4123    0.1
  6180.065   63065.8020    0.1
  6180.083   62893.8072    0.1
  6180.100   62465.5310    0.1
  6180.117   62100.4941    0.1
  6180.135   61819.9419    0.1
  6180.152   61462.5541    0.1
  6180.170   61118.9482    0.1
  6180.187   60836.7724    0.1
  6180.205   60657.4249    0.1
  6180.222   60326.9464    0.1
  6180.239   60087.0437    0.1
  6180.257   60038.8639    0.1
  6180.274   59658.2336    0.1
  6180.292   59531.8829    0.1
  6180.309   59254.4088    0.1
  6180.326   59056.0593    0.1
  6180.344   58620.5409    0.1
  6180.361   58044.4309    0.1
  6180.379   57216.1601    0.1
  6180.396   56594.8875    0.1
  6180.413   56010.8288    0.1
  6180.431   55069.3913    0.1
  6180.448   53500.6333    0.1
  6180.466   52683.4122    0.1
  6180.483   51346.0284    0.1
  6180.501   50227.2178    0.1
  6180.518   49467.8714    0.1
  6180.535   48722.1763    0.1
  6180.553   47848.4272    0.1
  6180.570   46833.4224    0.1
  6180.588   46479.2961    0.1
  6180.605   46144.5172    0.1
  6180.622   45721.5710    0.1
  6180.640   45823.0471    0.1
  6180.657   46045.2960    0.1
  6180.675   46303.3865    0.1
  6180.692   46652.2797    0.1
  6180.709   47008.8233    0.1
  6180.727   47310.8860    0.1
  6180.744   47935.7638    0.1
  6180.762   48725.6903    0.1
  6180.779   49308.6649    0.1
  6180.797   50320.9573    0.1
  6180.814   51072.8754    0.1
  6180.831   51923.6851    0.1
  6180.849   52688.6308    0.1
  6180.866   53606.7115    0.1
  6180.884   54789.6456    0.1
  6180.901   55386.4768    0.1
  6180.918   56406.9884    0.1
  6180.936   57296.3308    0.1
  6180.953   57902.3959    0.1
  6180.971   58702.5690    0.1
  6180.988   59345.6243    0.1
  6181.005   59950.8512    0.1
  6181.023   60464.8283    0.1
  6181.040   60913.6657    0.1
  6181.058   61281.6242    0.1
  6181.075   61454.0568    0.1
  6181.093   61712.0645    0.1
  6181.110   62015.7531    0.1
  6181.127   62488.9240    0.1
  6181.145   62897.1852    0.1
  6181.162   63151.4753    0.1
  6181.180   63539.8678    0.1
  6181.197   64118.2338    0.1
  6181.214   64670.2706    0.1
  6181.232   65143.1591    0.1
  6181.249   65106.8579    0.1
  6181.267   66213.3192    0.1
  6181.284   66567.8216    0.1
  6181.301   66698.5787    0.1
  6181.319   67033.1564    0.1
  6181.336   67055.6516    0.1
  6181.354   67122.6249    0.1
  6181.371   67256.5907    0.1
  6181.388   67120.8714    0.1
  6181.406   66959.8147    0.1
  6181.423   66868.6649    0.1
  6181.441   66775.2105    0.1
  6181.458   66911.2118    0.1
  6181.476   66692.8291    0.1
  6181.493   66702.5634    0.1
  6181.510   66620.9271    0.1
  6181.528   66712.5388    0.1
  6181.545   66735.5823    0.1
  6181.563   66754.7898    0.1
  6181.580   66694.5102    0.1
  6181.597   66559.1584    0.1
  6181.615   66502.5116    0.1
  6181.632   66738.2742    0.1
  6181.650   66649.1934    0.1
  6181.667   66424.9700    0.1
  6181.684   66140.4933    0.1
  6181.702   65856.9049    0.1
  6181.719   65475.7435    0.1
  6181.737   65168.8310    0.1
  6181.754   64940.0722    0.1
  6181.772   64587.0186    0.1
  6181.789   64255.4054    0.1
  6181.806   64268.4470    0.1
  6181.824   64393.5144    0.1
  6181.841   64443.6057    0.1
  6181.859   64506.4939    0.1
  6181.876   64838.5124    0.1
  6181.893   64906.7010    0.1
  6181.911   64835.7245    0.1
  6181.928   65321.3407    0.1
  6181.946   64861.8220    0.1
  6181.963   64523.5418    0.1
  6181.980   64242.1835    0.1
  6181.998   63981.7731    0.1
  6182.015   63663.1368    0.1
  6182.033   63116.6926    0.1
  6182.050   62904.9718    0.1
  6182.068   62576.0239    0.1
  6182.085   62268.4978    0.1
  6182.102   61853.4062    0.1
  6182.120   61475.6757    0.1
  6182.137   60996.6030    0.1
  6182.155   60668.4905    0.1
  6182.172   60523.0156    0.1
  6182.189   60377.9802    0.1
  6182.207   60264.1328    0.1
  6182.224   60239.7495    0.1
  6182.242   60344.1560    0.1
  6182.259   60457.3781    0.1
  6182.276   60670.3669    0.1
  6182.294   60980.1892    0.1
  6182.311   61303.7556    0.1
  6182.329   61723.4575    0.1
  6182.346   62083.1541    0.1
  6182.364   62347.1414    0.1
  6182.381   62597.8003    0.1
  6182.398   63009.4836    0.1
  6182.416   63291.2436    0.1
  6182.433   63736.4048    0.1
  6182.451   64042.9418    0.1
  6182.468   64380.8259    0.1
  6182.485   64530.7330    0.1
  6182.503   64354.8598    0.1
  6182.520   64300.5116    0.1
  6182.538   64767.0215    0.1
  6182.555   64531.0592    0.1
  6182.572   64351.5159    0.1
  6182.590   64420.5869    0.1
  6182.607   64238.2629    0.1
  6182.625   63891.5384    0.1
  6182.642   63853.9354    0.1
  6182.660   63807.0438    0.1
  6182.677   63459.7004    0.1
  6182.694   63261.6882    0.1
  6182.712   63249.4315    0.1
  6182.729   62695.1983    0.1
  6182.747   62772.7650    0.1
  6182.764   62791.3918    0.1
  6182.781   62622.6038    0.1
  6182.799   62839.4885    0.1
  6182.816   63303.1767    0.1
  6182.834   63631.8227    0.1
  6182.851   64061.7061    0.1
  6182.868   64569.3977    0.1
  6182.886   65008.5914    0.1
  6182.903   65708.4531    0.1
  6182.921   65716.7887    0.1
  6182.938   66193.4701    0.1
  6182.956   66532.4557    0.1
  6182.973   66656.1253    0.1
  6182.990   66789.1039    0.1
  6183.008   66845.8793    0.1
  6183.025   66643.1111    0.1
  6183.043   66405.1844    0.1
  6183.060   65973.1485    0.1
  6183.077   65776.6957    0.1
  6183.095   65625.4513    0.1
  6183.112   65298.2906    0.1
  6183.130   64753.2464    0.1
  6183.147   64547.7307    0.1
  6183.164   64453.2957    0.1
  6183.182   64312.2602    0.1
  6183.199   64187.2572    0.1
  6183.217   64296.6243    0.1
  6183.234   64522.5425    0.1
  6183.252   64641.3776    0.1
  6183.269   64345.0714    0.1
  6183.286   64159.3116    0.1
  6183.304   64202.9278    0.1
  6183.321   64127.9672    0.1
  6183.339   64036.3567    0.1
  6183.356   63796.4105    0.1
  6183.373   63468.9631    0.1
  6183.391   63147.6634    0.1
  6183.408   62816.3447    0.1
  6183.426   62264.2676    0.1
  6183.443   61920.2251    0.1
  6183.460   61652.7084    0.1
  6183.478   61379.8917    0.1
  6183.495   61072.2686    0.1
  6183.513   60914.8121    0.1
  6183.530   60761.9252    0.1
  6183.547   60622.1662    0.1
  6183.565   60008.8139    0.1
  6183.582   59679.4821    0.1
  6183.600   59343.2356    0.1
  6183.617   58950.4180    0.1
  6183.635   58454.5497    0.1
  6183.652   58141.8164    0.1
  6183.669   57779.7791    0.1
  6183.687   57299.9572    0.1
  6183.704   56861.6597    0.1
  6183.722   56490.8085    0.1
  6183.739   56003.9021    0.1
  6183.756   55857.6785    0.1
  6183.774   55526.4359    0.1
  6183.791   55411.7812    0.1
  6183.809   55395.9341    0.1
  6183.826   55381.9207    0.1
  6183.843   55212.3406    0.1
  6183.861   55328.1376    0.1
  6183.878   55372.9209    0.1
  6183.896   55416.2889    0.1
  6183.913   55458.5189    0.1
  6183.931   55770.5532    0.1
  6183.948   55815.8531    0.1
  6183.965   55944.1231    0.1
  6183.983   56089.1654    0.1
  6184.000   56071.2476    0.1
  6184.018   55864.7763    0.1
  6184.035   55817.9850    0.1
  6184.052   55611.3180    0.1
  6184.070   55715.2857    0.1
  6184.087   55498.8430    0.1
  6184.105   55200.2739    0.1
  6184.122   54888.2576    0.1
  6184.139   54651.3657    0.1
  6184.157   54202.6129    0.1
  6184.174   54157.7547    0.1
  6184.192   54372.9744    0.1
  6184.209   53676.6544    0.1
  6184.227   53648.3037    0.1
  6184.244   53803.0329    0.1
  6184.261   53777.1488    0.1
  6184.279   53759.9074    0.1
  6184.296   53909.3036    0.1
  6184.314   54203.3410    0.1
  6184.331   54560.3214    0.1
  6184.348   54834.4408    0.1
  6184.366   55068.9687    0.1
  6184.383   55591.0057    0.1
  6184.401   56018.2282    0.1
  6184.418   56504.2188    0.1
  6184.435   57372.3210    0.1
  6184.453   57784.0032    0.1
  6184.470   58411.0993    0.1
  6184.488   58989.9678    0.1
  6184.505   59610.7988    0.1
  6184.523   60138.8281    0.1
  6184.540   60655.0679    0.1
  6184.557   61142.4261    0.1
  6184.575   61485.2724    0.1
  6184.592   61799.0616    0.1
  6184.610   62169.1752    0.1
  6184.627   62398.6571    0.1
  6184.644   62208.8264    0.1
  6184.662   62366.2414    0.1
  6184.679   62599.9698    0.1
  6184.697   62393.5129    0.1
  6184.714   62034.6434    0.1
  6184.731   61751.2667    0.1
  6184.749   61276.8244    0.1
  6184.766   61028.7365    0.1
  6184.784   60757.4944    0.1
  6184.801   60580.9095    0.1
  6184.819   60583.8379    0.1
  6184.836   60632.1152    0.1
  6184.853   60684.8856    0.1
  6184.871   60499.9509    0.1
  6184.888   61010.2452    0.1
  6184.906   61211.9422    0.1
  6184.923   61460.3977    0.1
  6184.940   61828.2763    0.1
  6184.958   62323.2441    0.1
  6184.975   62881.9312    0.1
  6184.993   63102.3342    0.1
  6185.010   63108.2119    0.1
  6185.027   63356.3753    0.1
  6185.045   64047.9089    0.1
  6185.062   64329.9262    0.1
  6185.080   64454.8358    0.1
  6185.097   64593.2316    0.1
  6185.115   64578.9020    0.1
  6185.132   64279.6996    0.1
  6185.149   64249.2832    0.1
  6185.167   63967.1336    0.1
  6185.184   63329.2350    0.1
  6185.202   63103.9698    0.1
  6185.219   63124.3999    0.1
  6185.236   63006.8036    0.1
  6185.254   62678.8850    0.1
  6185.271   62655.1959    0.1
  6185.289   62564.6707    0.1
  6185.306   62280.3665    0.1
  6185.323   62361.3007    0.1
  6185.341   62230.4300    0.1
  6185.358   61946.2147    0.1
  6185.376   61727.2446    0.1
  6185.393   61612.6639    0.1
  6185.410   61391.7533    0.1
  6185.428   61130.3484    0.1
  6185.445   60823.4010    0.1
  6185.463   60616.8082    0.1
  6185.480   60622.4168    0.1
  6185.498   60542.2409    0.1
  6185.515   60601.3037    0.1
  6185.532   60639.5941    0.1
  6185.550   60971.2550    0.1
  6185.567   61204.1738    0.1
  6185.585   61330.5735    0.1
  6185.602   61411.9875    0.1
  6185.619   61366.1496    0.1
  6185.637   61470.3382    0.1
  6185.654   61672.1602    0.1
  6185.672   61789.4479    0.1
  6185.689   61824.8192    0.1
  6185.706   61861.1520    0.1
  6185.724   61787.2140    0.1
  6185.741   61707.6997    0.1
  6185.759   61528.2007    0.1
  6185.776   61180.5314    0.1
  6185.794   60850.5079    0.1
  6185.811   60715.3108    0.1
  6185.828   60629.8923    0.1
  6185.846   60370.2645    0.1
  6185.863   60222.6613    0.1
  6185.881   60026.6141    0.1
  6185.898   59841.5943    0.1
  6185.915   59745.6848    0.1
  6185.933   59601.8492    0.1
  6185.950   59635.0824    0.1
  6185.968   59715.7484    0.1
  6185.985   59705.6350    0.1
  6186.002   59756.6533    0.1
  6186.020   59623.4009    0.1
  6186.037   59583.8303    0.1
  6186.055   59759.6864    0.1
  6186.072   59455.2778    0.1
  6186.090   59632.5477    0.1
  6186.107   59632.3692    0.1
  6186.124   59711.9157    0.1
  6186.142   59874.7445    0.1
  6186.159   59964.2917    0.1
  6186.177   59837.7777    0.1
  6186.194   59435.0951    0.1
  6186.211   59384.4462    0.1
  6186.229   59397.3968    0.1
  6186.246   59360.7530    0.1
  6186.264   59310.1032    0.1
  6186.281   58746.5453    0.1
  6186.298   58490.7781    0.1
  6186.316   58202.8111    0.1
  6186.333   57920.2021    0.1
  6186.351   57921.0232    0.1
  6186.368   57420.1719    0.1
  6186.386   56732.2232    0.1
  6186.403   56002.6561    0.1
  6186.420   55219.8716    0.1
  6186.438   54292.0517    0.1
  6186.455   53205.7337    0.1
  6186.473   52811.8862    0.1
  6186.490   51596.5792    0.1
  6186.507   50901.9362    0.1
  6186.525   50069.1236    0.1
  6186.542   49317.8466    0.1
  6186.560   49077.6055    0.1
  6186.577   48684.4070    0.1
  6186.594   48305.1273    0.1
  6186.612   48040.7106    0.1
  6186.629   47757.6743    0.1
  6186.647   47836.1780    0.1
  6186.664   47688.4999    0.1
  6186.682   47061.5997    0.1
  6186.699   47016.8488    0.1
  6186.716   47317.0917    0.1
  6186.734   47343.1620    0.1
  6186.751   47366.0420    0.1
  6186.769   47281.0032    0.1
  6186.786   47254.1246    0.1
  6186.803   47313.1034    0.1
  6186.821   47400.6537    0.1
  6186.838   47360.1465    0.1
  6186.856   47217.7553    0.1
  6186.873   47209.1166    0.1
  6186.890   47154.5592    0.1
  6186.908   47134.9900    0.1
  6186.925   47144.2557    0.1
  6186.943   46972.3237    0.1
  6186.960   47129.5344    0.1
  6186.978   47140.2319    0.1
  6186.995   47016.5147    0.1
  6187.012   46963.9926    0.1
  6187.030   46933.8415    0.1
  6187.047   46956.4860    0.1
  6187.065   47043.2164    0.1
  6187.082   47160.8538    0.1
  6187.099   47471.0721    0.1
  6187.117   47636.2041    0.1
  6187.134   47762.9971    0.1
  6187.152   47903.2159    0.1
  6187.169   48045.6757    0.1
  6187.186   48166.2630    0.1
  6187.204   48587.4174    0.1
  6187.221   48961.3366    0.1
  6187.239   49500.9344    0.1
  6187.256   49906.2935    0.1
  6187.273   50068.0243    0.1
  6187.291   50332.2126    0.1
  6187.308   50648.3359    0.1
  6187.326   51102.4712    0.1
  6187.343   51435.3509    0.1
  6187.361   51736.9079    0.1
  6187.378   51871.3382    0.1
  6187.395   52133.2762    0.1
  6187.413   52434.8495    0.1
  6187.430   52673.8439    0.1
  6187.448   53055.2003    0.1
  6187.465   53309.2026    0.1
  6187.482   53394.2271    0.1
  6187.500   53207.3432    0.1
  6187.517   53436.2174    0.1
  6187.535   53487.7606    0.1
  6187.552   53301.2514    0.1
  6187.569   53205.2787    0.1
  6187.587   53128.2882    0.1
  6187.604   52963.6531    0.1
  6187.622   53049.7732    0.1
  6187.639   52772.5566    0.1
  6187.657   52721.8034    0.1
  6187.674   52618.8659    0.1
  6187.691   52332.0708    0.1
  6187.709   52038.0397    0.1
  6187.726   51703.9176    0.1
  6187.744   51656.2618    0.1
  6187.761   51438.4912    0.1
  6187.778   51237.5677    0.1
  6187.796   51168.9394    0.1
  6187.813   51026.2459    0.1
  6187.831   51073.1042    0.1
  6187.848   51117.6644    0.1
  6187.865   51288.4526    0.1
  6187.883   51460.3960    0.1
  6187.900   51539.2411    0.1
  6187.918   51759.3113    0.1
  6187.935   52019.0198    0.1
  6187.953   52173.3357    0.1
  6187.970   52276.1858    0.1
  6187.987   52388.7505    0.1
  6188.005   52507.0525    0.1
  6188.022   52565.1423    0.1
  6188.040   52959.0672    0.1
  6188.057   53120.7502    0.1
  6188.074   53211.0847    0.1
  6188.092   53409.7539    0.1
  6188.109   53589.5306    0.1
  6188.127   53487.5154    0.1
  6188.144   53073.1091    0.1
  6188.161   53494.8057    0.1
  6188.179   52862.3367    0.1
  6188.196   52676.0735    0.1
  6188.214   52503.1891    0.1
  6188.231   52148.0729    0.1
  6188.249   51459.5767    0.1
  6188.266   50871.0979    0.1
  6188.283   50672.4344    0.1
  6188.301   49949.6244    0.1
  6188.318   49430.5510    0.1
  6188.336   48800.6834    0.1
  6188.353   48427.4322    0.1
  6188.370   47972.8058    0.1
  6188.388   47801.6775    0.1
  6188.405   47667.8264    0.1
  6188.423   47641.4325    0.1
  6188.440   47543.1384    0.1
  6188.457   47867.1683    0.1
  6188.475   48137.9992    0.1
  6188.492   48729.7414    0.1
  6188.510   49175.0110    0.1
  6188.527   49718.5196    0.1
  6188.545   50408.1694    0.1
  6188.562   51378.7471    0.1
  6188.579   52121.9377    0.1
  6188.597   52860.5482    0.1
  6188.614   53615.0217    0.1
  6188.632   54462.3640    0.1
  6188.649   55333.0597    0.1
  6188.666   56089.0900    0.1
  6188.684   56062.3192    0.1
  6188.701   56625.6158    0.1
  6188.719   57466.1114    0.1
  6188.736   58097.0008    0.1
  6188.753   58441.9750    0.1
  6188.771   58899.9398    0.1
  6188.788   59155.5013    0.1
  6188.806   59690.7400    0.1
  6188.823   59818.0941    0.1
  6188.841   59784.3512    0.1
  6188.858   59795.1112    0.1
  6188.875   59603.3100    0.1
  6188.893   59530.0377    0.1
  6188.910   59257.6025    0.1
  6188.928   58935.5930    0.1
  6188.945   58760.4653    0.1
  6188.962   58556.8423    0.1
  6188.980   58228.8556    0.1
  6188.997   57925.7509    0.1
  6189.015   57464.2043    0.1
  6189.032   57055.9722    0.1
  6189.049   56603.8911    0.1
  6189.067   56124.7851    0.1
  6189.084   55545.3840    0.1
  6189.102   55357.1327    0.1
  6189.119   54666.3067    0.1
  6189.137   54053.0585    0.1
  6189.154   53435.5425    0.1
  6189.171   52858.9971    0.1
  6189.189   52341.8587    0.1
  6189.206   51598.5900    0.1
  6189.224   50766.1569    0.1
  6189.241   50098.7718    0.1
  6189.258   49562.6674    0.1
  6189.276   48901.2498    0.1
  6189.293   48162.9166    0.1
  6189.311   47745.9813    0.1
  6189.328   47300.0044    0.1
  6189.345   46711.8889    0.1
  6189.363   46311.4612    0.1
  6189.380   46048.1310    0.1
  6189.398   45947.1082    0.1
  6189.415   45914.1694    0.1
  6189.432   45944.5375    0.1
  6189.450   45979.9813    0.1
  6189.467   46156.5727    0.1
  6189.485   46296.8466    0.1
  6189.502   46385.6853    0.1
  6189.520   46423.2533    0.1
  6189.537   46452.5693    0.1
  6189.554   46485.2098    0.1
  6189.572   46408.9947    0.1
  6189.589   46281.6342    0.1
  6189.607   46273.6143    0.1
  6189.624   46130.8616    0.1
  6189.641   45821.8758    0.1
  6189.659   45722.8577    0.1
  6189.676   45637.1668    0.1
  6189.694   45514.7391    0.1
  6189.711   45415.5148    0.1
  6189.728   45517.9525    0.1
  6189.746   45547.4402    0.1
  6189.763   45638.8191    0.1
  6189.781   45833.1084    0.1
  6189.798   46170.4576    0.1
  6189.816   46585.4062    0.1
  6189.833   47178.3194    0.1
  6189.850   47835.2797    0.1
  6189.868   48521.0540    0.1
  6189.885   49295.2069    0.1
  6189.903   50034.0840    0.1
  6189.920   50835.8075    0.1
  6189.937   51607.8976    0.1
  6189.955   52232.3648    0.1
  6189.972   52928.0073    0.1
  6189.990   53446.3959    0.1
  6190.007   54015.0527    0.1
  6190.024   54421.4040    0.1
  6190.042   54700.3861    0.1
  6190.059   54914.4548    0.1
  6190.077   55185.8606    0.1
  6190.094   55383.2057    0.1
  6190.112   55578.2787    0.1
  6190.129   55628.3474    0.1
  6190.146   55594.4630    0.1
  6190.164   55569.0326    0.1
  6190.181   55465.6745    0.1
  6190.199   55268.4807    0.1
  6190.216   55077.2461    0.1
  6190.233   54955.4182    0.1
  6190.251   54833.1865    0.1
  6190.268   54669.8191    0.1
  6190.286   54514.4492    0.1
  6190.303   54367.7973    0.1
  6190.320   54243.2941    0.1
  6190.338   54083.0340    0.1
  6190.355   54018.7265    0.1
  6190.373   53977.1492    0.1
  6190.390   54033.1655    0.1
  6190.408   54094.5777    0.1
  6190.425   54288.2259    0.1
  6190.442   54374.7711    0.1
  6190.460   54417.3070    0.1
  6190.477   54470.1196    0.1
  6190.495   54643.2400    0.1
  6190.512   54738.3561    0.1
  6190.529   54819.0437    0.1
  6190.547   54874.5240    0.1
  6190.564   54667.7144    0.1
  6190.582   54667.7121    0.1
  6190.599   54628.7999    0.1
  6190.616   54493.5499    0.1
  6190.634   54279.3288    0.1
  6190.651   53951.0424    0.1
  6190.669   53665.0143    0.1
  6190.686   53277.5087    0.1
  6190.704   53165.2604    0.1
  6190.721   52693.2484    0.1
  6190.738   52226.2430    0.1
  6190.756   51900.9926    0.1
  6190.773   51529.1309    0.1
  6190.791   51197.0429    0.1
  6190.808   50931.6520    0.1
  6190.825   50737.2466    0.1
  6190.843   50593.9040    0.1
  6190.860   50507.6607    0.1
  6190.878   50487.5749    0.1
  6190.895   50486.7509    0.1
  6190.912   50633.9616    0.1
  6190.930   50800.2562    0.1
  6190.947   51018.8013    0.1
  6190.965   51224.5226    0.1
  6190.982   51422.5705    0.1
  6191.000   51651.0825    0.1
  6191.017   51875.6170    0.1
  6191.034   52033.3809    0.1
  6191.052   52177.6448    0.1
  6191.069   52220.0237    0.1
  6191.087   52224.3782    0.1
  6191.104   52180.5048    0.1
  6191.121   52102.7143    0.1
  6191.139   52002.7058    0.1
  6191.156   51792.2411    0.1
  6191.174   51553.7676    0.1
