#  wavelength    Flux         Std.Dev.
#  [Angstroem]   [F(5500)]    [N/A]

  6250.024   50275.9400    0.1
  6250.041   50282.5979    0.1
  6250.058   50783.5941    0.1
  6250.076   51279.5376    0.1
  6250.093   51831.4597    0.1
  6250.111   52439.4781    0.1
  6250.128   53124.0739    0.1
  6250.146   53709.0258    0.1
  6250.163   54213.9046    0.1
  6250.180   54778.8252    0.1
  6250.198   55455.1668    0.1
  6250.215   55985.9679    0.1
  6250.233   56298.2617    0.1
  6250.250   56687.6207    0.1
  6250.267   56719.2863    0.1
  6250.285   57139.3687    0.1
  6250.302   57529.2932    0.1
  6250.320   57875.9969    0.1
  6250.337   58360.0507    0.1
  6250.354   58676.8792    0.1
  6250.372   58848.9064    0.1
  6250.389   58981.6796    0.1
  6250.407   59125.9547    0.1
  6250.424   59232.0086    0.1
  6250.442   59255.5603    0.1
  6250.459   59277.8126    0.1
  6250.476   59197.8019    0.1
  6250.494   59449.6369    0.1
  6250.511   59473.7085    0.1
  6250.529   59376.5429    0.1
  6250.546   59249.5174    0.1
  6250.563   59019.3146    0.1
  6250.581   58738.0138    0.1
  6250.598   58410.8107    0.1
  6250.616   58017.2873    0.1
  6250.633   57567.0395    0.1
  6250.650   57230.3657    0.1
  6250.668   56957.4381    0.1
  6250.685   56603.7419    0.1
  6250.703   56124.9183    0.1
  6250.720   55771.0122    0.1
  6250.737   55577.1067    0.1
  6250.755   55198.5583    0.1
  6250.772   54714.5649    0.1
  6250.790   54676.1838    0.1
  6250.807   54605.4290    0.1
  6250.825   54335.2841    0.1
  6250.842   54551.3901    0.1
  6250.859   54562.4096    0.1
  6250.877   54495.9747    0.1
  6250.894   54605.4737    0.1
  6250.912   54800.2256    0.1
  6250.929   54974.8428    0.1
  6250.946   55166.5573    0.1
  6250.964   55563.5765    0.1
  6250.981   55987.6053    0.1
  6250.999   56191.9918    0.1
  6251.016   56539.4241    0.1
  6251.033   56996.2134    0.1
  6251.051   57429.6921    0.1
  6251.068   57694.5755    0.1
  6251.086   57786.2799    0.1
  6251.103   58245.6431    0.1
  6251.121   58651.3581    0.1
  6251.138   58956.6838    0.1
  6251.155   59232.9037    0.1
  6251.173   59532.7708    0.1
  6251.190   60067.0535    0.1
  6251.208   60639.2527    0.1
  6251.225   61090.2871    0.1
  6251.242   61286.8269    0.1
  6251.260   61649.3947    0.1
  6251.277   61992.3852    0.1
  6251.295   62364.1336    0.1
  6251.312   62745.4656    0.1
  6251.329   62816.2404    0.1
  6251.347   62979.0133    0.1
  6251.364   63197.1468    0.1
  6251.382   63357.5075    0.1
  6251.399   63386.9641    0.1
  6251.417   63388.1539    0.1
  6251.434   63257.0862    0.1
  6251.451   63320.4805    0.1
  6251.469   63190.8975    0.1
  6251.486   62947.2964    0.1
  6251.504   62629.7476    0.1
  6251.521   62530.2097    0.1
  6251.538   62140.7691    0.1
  6251.556   61696.0657    0.1
  6251.573   61373.8115    0.1
  6251.591   61171.6008    0.1
  6251.608   60718.0953    0.1
  6251.625   60237.9373    0.1
  6251.643   60132.0362    0.1
  6251.660   59838.8985    0.1
  6251.678   59503.3583    0.1
  6251.695   59155.1395    0.1
  6251.713   58770.8729    0.1
  6251.730   58394.5919    0.1
  6251.747   58118.6655    0.1
  6251.765   57708.6988    0.1
  6251.782   57253.5334    0.1
  6251.800   56817.1873    0.1
  6251.817   56283.4302    0.1
  6251.834   55705.5644    0.1
  6251.852   55310.7737    0.1
  6251.869   55076.8953    0.1
  6251.887   54542.8626    0.1
  6251.904   53798.6017    0.1
  6251.921   53068.1562    0.1
  6251.939   52404.2024    0.1
  6251.956   51469.7553    0.1
  6251.974   50506.4069    0.1
  6251.991   49242.8252    0.1
  6252.009   48077.5852    0.1
  6252.026   46785.9556    0.1
  6252.043   45431.4935    0.1
  6252.061   44523.4131    0.1
  6252.078   43346.5351    0.1
  6252.096   42369.2015    0.1
  6252.113   41417.3483    0.1
  6252.130   40643.3462    0.1
  6252.148   40143.5620    0.1
  6252.165   39927.1130    0.1
  6252.183   39516.6288    0.1
  6252.200   39241.8102    0.1
  6252.217   39265.9340    0.1
  6252.235   39378.1193    0.1
  6252.252   39609.8817    0.1
  6252.270   39814.6552    0.1
  6252.287   39882.9310    0.1
  6252.305   40263.9196    0.1
  6252.322   40915.3913    0.1
  6252.339   41525.0825    0.1
  6252.357   41804.4097    0.1
  6252.374   42298.1799    0.1
  6252.392   43127.5101    0.1
  6252.409   44111.5209    0.1
  6252.426   44883.0785    0.1
  6252.444   45681.5614    0.1
  6252.461   46782.6251    0.1
  6252.479   47675.9994    0.1
  6252.496   48661.4732    0.1
  6252.513   49415.4833    0.1
  6252.531   50243.3726    0.1
  6252.548   51035.4091    0.1
  6252.566   51615.9989    0.1
  6252.583   51943.0879    0.1
  6252.601   52328.9066    0.1
  6252.618   52398.8501    0.1
  6252.635   52152.0872    0.1
  6252.653   51872.5879    0.1
  6252.670   51426.4799    0.1
  6252.688   50789.6879    0.1
  6252.705   50052.5117    0.1
  6252.722   49248.7511    0.1
  6252.740   48440.9875    0.1
  6252.757   47504.6271    0.1
  6252.775   46468.0930    0.1
  6252.792   45628.5046    0.1
  6252.809   44523.6407    0.1
  6252.827   43574.8035    0.1
  6252.844   42786.3530    0.1
  6252.862   42106.8821    0.1
  6252.879   41518.4699    0.1
  6252.896   41100.5398    0.1
  6252.914   40719.9365    0.1
  6252.931   40404.0213    0.1
  6252.949   40291.4890    0.1
  6252.966   40143.5473    0.1
  6252.984   40241.0428    0.1
  6253.001   40384.5116    0.1
  6253.018   40517.9622    0.1
  6253.036   40726.1817    0.1
  6253.053   41128.1390    0.1
  6253.071   41523.6072    0.1
  6253.088   41833.7354    0.1
  6253.105   42479.9078    0.1
  6253.123   43112.0288    0.1
  6253.140   43706.1919    0.1
  6253.158   44260.4493    0.1
  6253.175   44782.3768    0.1
  6253.192   45483.7553    0.1
  6253.210   46237.3098    0.1
  6253.227   46826.5867    0.1
  6253.245   47406.5489    0.1
  6253.262   47973.6887    0.1
  6253.280   48627.1478    0.1
  6253.297   49334.1643    0.1
  6253.314   50152.2283    0.1
  6253.332   50809.2659    0.1
  6253.349   51471.1263    0.1
  6253.367   52181.4635    0.1
  6253.384   52662.2991    0.1
  6253.401   53152.2176    0.1
  6253.419   53749.2049    0.1
  6253.436   54372.5538    0.1
  6253.454   54726.4017    0.1
  6253.471   55123.8065    0.1
  6253.488   55591.5253    0.1
  6253.506   55703.7609    0.1
  6253.523   56315.6171    0.1
  6253.541   56722.8842    0.1
  6253.558   57309.1137    0.1
  6253.576   57853.4343    0.1
  6253.593   58212.3391    0.1
  6253.610   58668.2229    0.1
  6253.628   59136.2512    0.1
  6253.645   59667.4232    0.1
  6253.663   60184.9695    0.1
  6253.680   60548.9504    0.1
  6253.697   60945.5405    0.1
  6253.715   61213.1599    0.1
  6253.732   61516.9677    0.1
  6253.750   61735.7972    0.1
  6253.767   61977.3870    0.1
  6253.784   62127.0458    0.1
  6253.802   62165.7181    0.1
  6253.819   62302.7153    0.1
  6253.837   62189.5165    0.1
  6253.854   62221.8104    0.1
  6253.872   62254.9669    0.1
  6253.889   62107.5245    0.1
  6253.906   61918.2579    0.1
  6253.924   61774.3243    0.1
  6253.941   61506.3886    0.1
  6253.959   61212.4490    0.1
  6253.976   60805.9741    0.1
  6253.993   60381.3821    0.1
  6254.011   59884.4266    0.1
  6254.028   59305.5373    0.1
  6254.046   58819.9936    0.1
  6254.063   58285.2405    0.1
  6254.080   57627.0060    0.1
  6254.098   56961.5101    0.1
  6254.115   56281.9456    0.1
  6254.133   55730.0107    0.1
  6254.150   55170.9923    0.1
  6254.168   54608.9595    0.1
  6254.185   54171.8667    0.1
  6254.202   53663.3721    0.1
  6254.220   53252.5322    0.1
  6254.237   52856.9405    0.1
  6254.255   52466.7168    0.1
  6254.272   52176.2649    0.1
  6254.289   51973.2721    0.1
  6254.307   51616.5526    0.1
  6254.324   51256.3414    0.1
  6254.342   50953.9169    0.1
  6254.359   50684.0948    0.1
  6254.376   50265.3569    0.1
  6254.394   49640.4092    0.1
  6254.411   49043.9616    0.1
  6254.429   48464.7428    0.1
  6254.446   47676.1437    0.1
  6254.464   46764.7147    0.1
  6254.481   45949.5393    0.1
  6254.498   45212.1623    0.1
  6254.516   44473.5907    0.1
  6254.533   43583.7820    0.1
  6254.551   42786.2883    0.1
  6254.568   42181.3909    0.1
  6254.585   41618.4738    0.1
  6254.603   41031.0724    0.1
  6254.620   40477.4728    0.1
  6254.638   40223.4879    0.1
  6254.655   40053.0706    0.1
  6254.672   39973.1836    0.1
  6254.690   40009.3962    0.1
  6254.707   40211.7633    0.1
  6254.725   40419.7622    0.1
  6254.742   40735.0450    0.1
  6254.759   41251.1935    0.1
  6254.777   41875.6901    0.1
  6254.794   42479.3525    0.1
  6254.812   43170.9393    0.1
  6254.829   43876.4878    0.1
  6254.847   44584.7340    0.1
  6254.864   45425.4715    0.1
  6254.881   46332.6514    0.1
  6254.899   47197.5052    0.1
  6254.916   48199.6092    0.1
  6254.934   49171.6063    0.1
  6254.951   50183.5774    0.1
  6254.968   51218.5742    0.1
  6254.986   52329.8697    0.1
  6255.003   53373.1935    0.1
  6255.021   54062.2683    0.1
  6255.038   54784.1760    0.1
  6255.055   55421.7508    0.1
  6255.073   56162.1336    0.1
  6255.090   56639.9574    0.1
  6255.108   56950.0238    0.1
  6255.125   57225.6787    0.1
  6255.143   57525.4192    0.1
  6255.160   57658.2257    0.1
  6255.177   57751.7092    0.1
  6255.195   57846.4874    0.1
  6255.212   58030.6175    0.1
  6255.230   58030.0359    0.1
  6255.247   57932.9413    0.1
  6255.264   57941.4324    0.1
  6255.282   57797.8834    0.1
  6255.299   57499.0246    0.1
  6255.317   57274.0353    0.1
  6255.334   57161.5567    0.1
  6255.351   57195.6081    0.1
  6255.369   57151.0213    0.1
  6255.386   57055.4920    0.1
  6255.404   56970.5746    0.1
  6255.421   56888.4800    0.1
  6255.439   56785.5452    0.1
  6255.456   56617.5390    0.1
  6255.473   56432.0588    0.1
  6255.491   56378.3254    0.1
  6255.508   56369.5191    0.1
  6255.526   56361.8601    0.1
  6255.543   56359.8562    0.1
  6255.560   56473.2999    0.1
  6255.578   56737.8637    0.1
  6255.595   57073.2570    0.1
  6255.613   57374.4405    0.1
  6255.630   57678.7602    0.1
  6255.647   58000.3672    0.1
  6255.665   58453.6447    0.1
  6255.682   58879.5411    0.1
  6255.700   59206.8846    0.1
  6255.717   59573.6909    0.1
  6255.735   59971.2536    0.1
  6255.752   60372.1344    0.1
  6255.769   60584.0674    0.1
  6255.787   60891.1460    0.1
  6255.804   61314.5019    0.1
  6255.822   61551.9367    0.1
  6255.839   61793.7302    0.1
  6255.856   62084.4995    0.1
  6255.874   62281.2916    0.1
  6255.891   62324.7215    0.1
  6255.909   62229.0909    0.1
  6255.926   62215.5151    0.1
  6255.943   62287.5858    0.1
  6255.961   62187.6301    0.1
  6255.978   62081.3317    0.1
  6255.996   62002.1784    0.1
  6256.013   62011.2884    0.1
  6256.031   61871.7556    0.1
  6256.048   61902.8436    0.1
  6256.065   61992.6189    0.1
  6256.083   62025.6997    0.1
  6256.100   61947.5377    0.1
  6256.118   61859.9092    0.1
  6256.135   61745.8782    0.1
  6256.152   61504.3666    0.1
  6256.170   61125.0035    0.1
  6256.187   60608.1600    0.1
  6256.205   60022.1662    0.1
  6256.222   59324.9686    0.1
  6256.239   58548.9076    0.1
  6256.257   57701.3748    0.1
  6256.274   56924.3190    0.1
  6256.292   56030.9171    0.1
  6256.309   55116.8833    0.1
  6256.327   54464.3242    0.1
  6256.344   53766.1615    0.1
  6256.361   53172.9173    0.1
  6256.379   52599.6147    0.1
  6256.396   52075.3739    0.1
  6256.414   51686.9470    0.1
  6256.431   51326.9250    0.1
  6256.448   50904.2942    0.1
  6256.466   50449.7486    0.1
  6256.483   49944.2395    0.1
  6256.501   49447.0853    0.1
  6256.518   48729.5267    0.1
  6256.535   48099.8371    0.1
  6256.553   47456.7766    0.1
  6256.570   46845.3790    0.1
  6256.588   46190.3518    0.1
  6256.605   45485.7338    0.1
  6256.623   44887.4660    0.1
  6256.640   44218.3336    0.1
  6256.657   43550.6373    0.1
  6256.675   42949.0816    0.1
  6256.692   42484.8805    0.1
  6256.710   42132.8933    0.1
  6256.727   41840.7565    0.1
  6256.744   41615.3934    0.1
  6256.762   41554.0142    0.1
  6256.779   41481.0249    0.1
  6256.797   41702.0603    0.1
  6256.814   41799.1153    0.1
  6256.831   41927.6207    0.1
  6256.849   42203.6074    0.1
  6256.866   42542.7669    0.1
  6256.884   42861.4218    0.1
  6256.901   43233.1383    0.1
  6256.918   43626.2369    0.1
  6256.936   44055.1525    0.1
  6256.953   44517.1129    0.1
  6256.971   44848.2153    0.1
  6256.988   45275.1799    0.1
  6257.006   45775.3470    0.1
  6257.023   46170.9388    0.1
  6257.040   46503.7106    0.1
  6257.058   46570.4244    0.1
  6257.075   46598.0664    0.1
  6257.093   46492.7524    0.1
  6257.110   46240.7771    0.1
  6257.127   45943.7759    0.1
  6257.145   45434.5164    0.1
  6257.162   44919.9280    0.1
  6257.180   44564.7300    0.1
  6257.197   44156.9091    0.1
  6257.214   43858.7921    0.1
  6257.232   43619.8070    0.1
  6257.249   43462.0734    0.1
  6257.267   43305.2550    0.1
  6257.284   43276.5641    0.1
  6257.302   43428.4615    0.1
  6257.319   43805.4233    0.1
  6257.336   44107.2885    0.1
  6257.354   44562.8395    0.1
  6257.371   45229.2855    0.1
  6257.389   46046.3221    0.1
  6257.406   46916.6661    0.1
  6257.423   47694.2752    0.1
  6257.441   48531.0667    0.1
  6257.458   49673.0888    0.1
  6257.476   50889.8767    0.1
  6257.493   51995.9429    0.1
  6257.510   52964.3141    0.1
  6257.528   53723.1264    0.1
  6257.545   54588.4319    0.1
  6257.563   55223.5204    0.1
  6257.580   55836.4684    0.1
  6257.598   56442.1057    0.1
  6257.615   56846.9221    0.1
  6257.632   57104.9532    0.1
  6257.650   57276.3972    0.1
  6257.667   57469.8623    0.1
  6257.685   57583.3050    0.1
  6257.702   57578.7097    0.1
  6257.719   57452.7042    0.1
  6257.737   57106.0080    0.1
  6257.754   56906.6954    0.1
  6257.772   56705.9295    0.1
  6257.789   56422.6385    0.1
  6257.806   56083.6658    0.1
  6257.824   55804.5437    0.1
  6257.841   55541.1436    0.1
  6257.859   55172.3375    0.1
  6257.876   54627.5733    0.1
  6257.894   54153.8131    0.1
  6257.911   53664.7440    0.1
  6257.928   53064.7634    0.1
  6257.946   52451.0821    0.1
  6257.963   51813.7474    0.1
  6257.981   51047.5242    0.1
  6257.998   50191.8211    0.1
  6258.015   49209.2038    0.1
  6258.033   48230.6059    0.1
  6258.050   47082.8231    0.1
  6258.068   45970.7229    0.1
  6258.085   44754.8486    0.1
  6258.102   43443.9726    0.1
  6258.120   42309.6182    0.1
  6258.137   41263.4747    0.1
  6258.155   40356.1310    0.1
  6258.172   39505.7627    0.1
  6258.190   38755.2869    0.1
  6258.207   38113.8989    0.1
  6258.224   37639.6327    0.1
  6258.242   37219.5152    0.1
  6258.259   36915.8128    0.1
  6258.277   36595.7027    0.1
  6258.294   36301.2661    0.1
  6258.311   35987.2293    0.1
  6258.329   35672.6663    0.1
  6258.346   35377.3171    0.1
  6258.364   35058.9448    0.1
  6258.381   34717.8294    0.1
  6258.398   34469.8660    0.1
  6258.416   34335.9203    0.1
  6258.433   34137.0999    0.1
  6258.451   34062.0908    0.1
  6258.468   34138.7179    0.1
  6258.486   34202.6766    0.1
  6258.503   34285.0121    0.1
  6258.520   34545.7035    0.1
  6258.538   34801.9813    0.1
  6258.555   35013.8032    0.1
  6258.573   35278.9527    0.1
  6258.590   35773.3033    0.1
  6258.607   36202.9657    0.1
  6258.625   36544.9738    0.1
  6258.642   37023.9742    0.1
  6258.660   37484.6869    0.1
  6258.677   37902.9225    0.1
  6258.694   38379.6411    0.1
  6258.712   38765.9871    0.1
  6258.729   39061.2754    0.1
  6258.747   39235.8367    0.1
  6258.764   39300.4782    0.1
  6258.781   39242.7446    0.1
  6258.799   39120.4715    0.1
  6258.816   38814.5379    0.1
  6258.834   38423.2594    0.1
  6258.851   37940.5099    0.1
  6258.869   37431.6070    0.1
  6258.886   36963.4601    0.1
  6258.903   36409.1955    0.1
  6258.921   35741.6398    0.1
  6258.938   35137.5817    0.1
  6258.956   34683.7812    0.1
  6258.973   34347.9279    0.1
  6258.990   33906.2046    0.1
  6259.008   33550.8282    0.1
  6259.025   33401.9991    0.1
  6259.043   33244.0685    0.1
  6259.060   33105.5184    0.1
  6259.077   33075.2170    0.1
  6259.095   33150.5085    0.1
  6259.112   33315.0094    0.1
  6259.130   33477.6427    0.1
  6259.147   33801.8154    0.1
  6259.165   34092.6076    0.1
  6259.182   34420.3691    0.1
  6259.199   34651.5837    0.1
  6259.217   35024.9238    0.1
  6259.234   35427.4314    0.1
  6259.252   35836.7634    0.1
  6259.269   36143.4705    0.1
  6259.286   36549.8789    0.1
  6259.304   37071.5145    0.1
  6259.321   37626.0163    0.1
  6259.339   38276.2629    0.1
  6259.356   38978.8249    0.1
  6259.373   39728.6247    0.1
  6259.391   40502.9429    0.1
  6259.408   41397.9763    0.1
  6259.426   42454.0832    0.1
  6259.443   43276.1395    0.1
  6259.461   44230.8960    0.1
  6259.478   45284.8267    0.1
  6259.495   46694.3773    0.1
  6259.513   48055.7762    0.1
  6259.530   49213.7702    0.1
  6259.548   50497.4303    0.1
  6259.565   51762.1644    0.1
  6259.582   53061.7828    0.1
  6259.600   54336.7906    0.1
  6259.617   55219.7275    0.1
  6259.635   56236.7592    0.1
  6259.652   57343.6698    0.1
  6259.669   58242.0516    0.1
  6259.687   59055.8561    0.1
  6259.704   59720.1284    0.1
  6259.722   60344.3014    0.1
  6259.739   60722.3758    0.1
  6259.757   61019.7392    0.1
  6259.774   61100.8369    0.1
  6259.791   61207.0678    0.1
  6259.809   61188.0310    0.1
  6259.826   61045.4324    0.1
  6259.844   61007.4277    0.1
  6259.861   60720.9894    0.1
  6259.878   60365.2766    0.1
  6259.896   59890.1804    0.1
  6259.913   59576.5840    0.1
  6259.931   59434.8941    0.1
  6259.948   59295.1207    0.1
  6259.965   59226.8154    0.1
  6259.983   59199.2699    0.1
  6260.000   59297.3619    0.1
  6260.018   59475.1218    0.1
  6260.035   59626.5777    0.1
  6260.053   59779.6209    0.1
  6260.070   60093.9733    0.1
  6260.087   60361.1712    0.1
  6260.105   60824.0328    0.1
  6260.122   61003.1295    0.1
  6260.140   61109.2450    0.1
  6260.157   61386.0639    0.1
  6260.174   61586.3275    0.1
  6260.192   61729.1771    0.1
  6260.209   61833.7334    0.1
  6260.227   61884.1534    0.1
  6260.244   61913.3933    0.1
  6260.261   61822.8374    0.1
  6260.279   61657.1679    0.1
  6260.296   61635.1495    0.1
  6260.314   61531.0607    0.1
  6260.331   61434.6508    0.1
  6260.349   61284.7599    0.1
  6260.366   61225.4579    0.1
  6260.383   61270.5956    0.1
  6260.401   61329.3564    0.1
  6260.418   61297.4794    0.1
  6260.436   61781.5382    0.1
  6260.453   61957.5147    0.1
  6260.470   62060.3525    0.1
  6260.488   62255.8522    0.1
  6260.505   62536.6230    0.1
  6260.523   62818.5437    0.1
  6260.540   63022.5399    0.1
  6260.557   63236.7786    0.1
  6260.575   63413.5099    0.1
  6260.592   63784.5724    0.1
  6260.610   64011.3838    0.1
  6260.627   64269.7215    0.1
  6260.644   64339.2425    0.1
  6260.662   64408.4010    0.1
  6260.679   64432.6400    0.1
  6260.697   64339.9320    0.1
  6260.714   64172.8400    0.1
  6260.732   63981.2636    0.1
  6260.749   63594.3086    0.1
  6260.766   63216.2195    0.1
  6260.784   62911.2957    0.1
  6260.801   62486.2579    0.1
  6260.819   62160.3731    0.1
  6260.836   61823.8457    0.1
  6260.853   61507.1275    0.1
  6260.871   61377.0214    0.1
  6260.888   61283.9747    0.1
  6260.906   61185.4029    0.1
  6260.923   61165.4351    0.1
  6260.940   61040.4294    0.1
  6260.958   60825.4763    0.1
  6260.975   60622.6237    0.1
  6260.993   60343.2106    0.1
  6261.010   59964.1124    0.1
  6261.028   59545.2745    0.1
  6261.045   59134.7732    0.1
  6261.062   58626.5997    0.1
  6261.080   58099.8507    0.1
  6261.097   57286.5643    0.1
  6261.115   56505.8827    0.1
  6261.132   55764.5872    0.1
  6261.149   54771.7440    0.1
  6261.167   53850.2398    0.1
  6261.184   52743.3555    0.1
