#  wavelength    Flux         Std.Dev.
#  [Angstroem]   [F(5500)]    [N/A]

  6150.019   699.4259    0.1
  6150.036   715.7540    0.1
  6150.053   727.6393    0.1
  6150.071   744.1971    0.1
  6150.088   754.4835    0.1
  6150.106   762.7716    0.1
  6150.123   769.6407    0.1
  6150.140   773.5988    0.1
  6150.158   777.5008    0.1
  6150.175   780.3395    0.1
  6150.192   783.5293    0.1
  6150.210   789.9658    0.1
  6150.227   789.6974    0.1
  6150.245   787.4978    0.1
  6150.262   786.1069    0.1
  6150.279   786.2506    0.1
  6150.297   786.2457    0.1
  6150.314   782.0504    0.1
  6150.332   783.6662    0.1
  6150.349   787.6625    0.1
  6150.366   784.2872    0.1
  6150.384   783.7955    0.1
  6150.401   786.2828    0.1
  6150.419   786.4086    0.1
  6150.436   785.3201    0.1
  6150.453   783.5540    0.1
  6150.471   782.2370    0.1
  6150.488   782.2817    0.1
  6150.506   784.2821    0.1
  6150.523   784.9067    0.1
  6150.540   784.2872    0.1
  6150.558   781.4247    0.1
  6150.575   781.2996    0.1
  6150.593   782.2501    0.1
  6150.610   782.4677    0.1
  6150.627   782.0434    0.1
  6150.645   781.5333    0.1
  6150.662   781.0338    0.1
  6150.680   779.6410    0.1
  6150.697   777.4247    0.1
  6150.714   775.8953    0.1
  6150.732   776.0581    0.1
  6150.749   777.4858    0.1
  6150.767   774.5652    0.1
  6150.784   772.3160    0.1
  6150.801   772.5317    0.1
  6150.819   773.0725    0.1
  6150.836   772.9120    0.1
  6150.854   770.6348    0.1
  6150.871   769.9002    0.1
  6150.888   770.1472    0.1
  6150.906   772.7700    0.1
  6150.923   772.1750    0.1
  6150.941   770.1999    0.1
  6150.958   771.9100    0.1
  6150.975   772.8827    0.1
  6150.993   772.8447    0.1
  6151.010   771.5310    0.1
  6151.028   768.6534    0.1
  6151.045   763.0847    0.1
  6151.062   755.8972    0.1
  6151.080   749.2360    0.1
  6151.097   737.8296    0.1
  6151.115   723.5735    0.1
  6151.132   710.0915    0.1
  6151.149   682.9371    0.1
  6151.167   658.7646    0.1
  6151.184   639.8908    0.1
  6151.202   605.6537    0.1
  6151.219   577.9134    0.1
  6151.236   554.0465    0.1
  6151.254   523.1846    0.1
  6151.271   502.0113    0.1
  6151.289   482.2601    0.1
  6151.306   466.8734    0.1
  6151.323   460.6606    0.1
  6151.341   458.0479    0.1
  6151.358   464.9040    0.1
  6151.376   474.6914    0.1
  6151.393   492.1174    0.1
  6151.410   517.5714    0.1
  6151.428   539.4397    0.1
  6151.445   569.4459    0.1
  6151.463   598.9028    0.1
  6151.480   622.3616    0.1
  6151.497   653.7353    0.1
  6151.515   676.5775    0.1
  6151.532   693.9316    0.1
  6151.550   718.8742    0.1
  6151.567   732.5569    0.1
  6151.584   741.7415    0.1
  6151.602   753.4471    0.1
  6151.619   762.1433    0.1
  6151.637   770.6960    0.1
  6151.654   772.2726    0.1
  6151.671   773.5173    0.1
  6151.689   777.9822    0.1
  6151.706   778.6733    0.1
  6151.724   778.6090    0.1
  6151.741   780.5236    0.1
  6151.758   782.7323    0.1
  6151.776   783.4940    0.1
  6151.793   781.3827    0.1
  6151.811   780.8547    0.1
  6151.828   780.8730    0.1
  6151.845   778.2896    0.1
  6151.863   775.7381    0.1
  6151.880   773.6410    0.1
  6151.898   769.7874    0.1
  6151.915   768.0726    0.1
  6151.932   767.4883    0.1
  6151.950   765.6743    0.1
  6151.967   764.5613    0.1
  6151.985   763.7918    0.1
  6152.002   760.8111    0.1
  6152.019   760.7051    0.1
  6152.037   764.4861    0.1
  6152.054   765.8942    0.1
  6152.072   766.5331    0.1
  6152.089   768.7489    0.1
  6152.106   771.3541    0.1
  6152.124   772.4806    0.1
  6152.141   770.7774    0.1
  6152.159   772.6054    0.1
  6152.176   775.2134    0.1
  6152.193   776.1931    0.1
  6152.211   774.3464    0.1
  6152.228   771.9971    0.1
  6152.246   773.0416    0.1
  6152.263   772.5459    0.1
  6152.280   770.7773    0.1
  6152.298   769.4480    0.1
  6152.315   768.9818    0.1
  6152.333   768.8310    0.1
  6152.350   767.9349    0.1
  6152.367   767.1154    0.1
  6152.385   766.4151    0.1
  6152.402   767.5036    0.1
  6152.420   766.7955    0.1
  6152.437   761.7686    0.1
  6152.454   761.2735    0.1
  6152.472   762.5570    0.1
  6152.489   764.2335    0.1
  6152.506   764.9844    0.1
  6152.524   765.0003    0.1
  6152.541   763.9884    0.1
  6152.559   764.1564    0.1
  6152.576   764.8697    0.1
  6152.593   766.5942    0.1
  6152.611   769.2889    0.1
  6152.628   772.4480    0.1
  6152.646   775.5478    0.1
  6152.663   776.3512    0.1
  6152.680   776.5699    0.1
  6152.698   783.8818    0.1
  6152.715   787.9270    0.1
  6152.733   788.7612    0.1
  6152.750   786.7481    0.1
  6152.767   786.2448    0.1
  6152.785   788.4489    0.1
  6152.802   789.5773    0.1
  6152.820   789.5534    0.1
  6152.837   788.7508    0.1
  6152.854   788.6110    0.1
  6152.872   788.3309    0.1
  6152.889   786.4620    0.1
  6152.907   785.2250    0.1
  6152.924   784.0785    0.1
  6152.941   779.5828    0.1
  6152.959   779.1725    0.1
  6152.976   780.5922    0.1
  6152.994   780.9908    0.1
  6153.011   779.4934    0.1
  6153.028   777.5735    0.1
  6153.046   778.4799    0.1
  6153.063   778.1880    0.1
  6153.081   776.9187    0.1
  6153.098   776.8279    0.1
  6153.115   777.5010    0.1
  6153.133   778.7359    0.1
  6153.150   779.5493    0.1
  6153.168   780.1342    0.1
  6153.185   781.0783    0.1
  6153.202   782.0423    0.1
  6153.220   783.4163    0.1
  6153.237   786.5188    0.1
  6153.255   786.2985    0.1
  6153.272   785.9819    0.1
  6153.289   788.5203    0.1
  6153.307   788.5558    0.1
  6153.324   787.5731    0.1
  6153.342   786.4303    0.1
  6153.359   787.4464    0.1
  6153.376   788.5133    0.1
  6153.394   785.5455    0.1
  6153.411   784.5252    0.1
  6153.429   784.8254    0.1
  6153.446   786.2793    0.1
  6153.463   786.8934    0.1
  6153.481   786.9111    0.1
  6153.498   783.8855    0.1
  6153.516   783.4829    0.1
  6153.533   784.8286    0.1
  6153.550   780.5681    0.1
  6153.568   777.0009    0.1
  6153.585   774.0286    0.1
  6153.603   769.2436    0.1
  6153.620   765.6441    0.1
  6153.637   761.8265    0.1
  6153.655   753.5013    0.1
  6153.672   747.2276    0.1
  6153.690   741.8847    0.1
  6153.707   730.5342    0.1
  6153.724   719.6491    0.1
  6153.742   705.2725    0.1
  6153.759   689.2528    0.1
  6153.777   675.4476    0.1
  6153.794   655.8552    0.1
  6153.811   638.3445    0.1
  6153.829   623.7188    0.1
  6153.846   597.3356    0.1
  6153.864   581.0877    0.1
  6153.881   570.7776    0.1
  6153.898   554.1905    0.1
  6153.916   546.2096    0.1
  6153.933   542.4366    0.1
  6153.951   542.6505    0.1
  6153.968   545.6874    0.1
  6153.985   550.6835    0.1
  6154.003   567.4236    0.1
  6154.020   582.1991    0.1
  6154.038   598.4206    0.1
  6154.055   621.1189    0.1
  6154.072   638.5532    0.1
  6154.090   658.2015    0.1
  6154.107   677.0973    0.1
  6154.125   690.0492    0.1
  6154.142   705.6497    0.1
  6154.159   720.2294    0.1
  6154.177   728.3989    0.1
  6154.194   733.6893    0.1
  6154.212   739.7791    0.1
  6154.229   745.0195    0.1
  6154.246   752.0678    0.1
  6154.264   756.3460    0.1
  6154.281   758.8791    0.1
  6154.299   762.5599    0.1
  6154.316   764.8549    0.1
  6154.333   766.1632    0.1
  6154.351   767.1977    0.1
  6154.368   769.8377    0.1
  6154.386   772.7651    0.1
  6154.403   774.5799    0.1
  6154.420   774.8733    0.1
  6154.438   774.7704    0.1
  6154.455   773.8381    0.1
  6154.473   774.8942    0.1
  6154.490   777.1249    0.1
  6154.507   776.4158    0.1
  6154.525   773.6930    0.1
  6154.542   769.7049    0.1
  6154.560   764.6576    0.1
  6154.577   761.0185    0.1
  6154.594   756.9502    0.1
  6154.612   744.7134    0.1
  6154.629   733.3688    0.1
  6154.647   720.3431    0.1
  6154.664   705.0567    0.1
  6154.681   689.9567    0.1
  6154.699   666.5634    0.1
  6154.716   642.3424    0.1
  6154.733   623.7267    0.1
  6154.751   598.1848    0.1
  6154.768   574.1232    0.1
  6154.786   556.9255    0.1
  6154.803   535.6599    0.1
  6154.820   520.5487    0.1
  6154.838   511.8000    0.1
  6154.855   504.6761    0.1
  6154.873   506.0749    0.1
  6154.890   511.1293    0.1
  6154.907   525.2733    0.1
  6154.925   538.6103    0.1
  6154.942   550.3140    0.1
  6154.960   575.6141    0.1
  6154.977   596.7019    0.1
  6154.994   614.4066    0.1
  6155.012   645.3997    0.1
  6155.029   664.3574    0.1
  6155.047   678.4375    0.1
  6155.064   700.7258    0.1
  6155.081   715.5624    0.1
  6155.099   728.1409    0.1
  6155.116   742.6641    0.1
  6155.134   750.7880    0.1
  6155.151   756.9858    0.1
  6155.168   761.7590    0.1
  6155.186   764.8383    0.1
  6155.203   768.2069    0.1
  6155.221   768.7066    0.1
  6155.238   767.7614    0.1
  6155.255   765.9472    0.1
  6155.273   761.2195    0.1
  6155.290   759.2697    0.1
  6155.308   760.3545    0.1
  6155.325   754.8667    0.1
  6155.342   749.5263    0.1
  6155.360   745.1433    0.1
  6155.377   743.4744    0.1
  6155.395   742.8959    0.1
  6155.412   742.0165    0.1
  6155.429   740.3326    0.1
  6155.447   740.0800    0.1
  6155.464   743.7073    0.1
  6155.482   743.3954    0.1
  6155.499   742.3964    0.1
  6155.516   744.3664    0.1
  6155.534   743.9693    0.1
  6155.551   742.5186    0.1
  6155.569   740.5483    0.1
  6155.586   737.5607    0.1
  6155.603   734.1013    0.1
  6155.621   725.3396    0.1
  6155.638   718.4888    0.1
  6155.656   713.1062    0.1
  6155.673   703.5753    0.1
  6155.690   700.5139    0.1
  6155.708   700.0902    0.1
  6155.725   695.1271    0.1
  6155.743   694.0733    0.1
  6155.760   695.1820    0.1
  6155.777   697.0076    0.1
  6155.795   702.0486    0.1
  6155.812   708.8818    0.1
  6155.830   711.5174    0.1
  6155.847   715.7888    0.1
  6155.864   722.6989    0.1
  6155.882   728.6531    0.1
  6155.899   730.6061    0.1
  6155.917   731.0983    0.1
  6155.934   732.8038    0.1
  6155.951   733.5641    0.1
  6155.969   733.5358    0.1
  6155.986   733.1285    0.1
  6156.004   732.4985    0.1
  6156.021   731.8215    0.1
  6156.038   734.1745    0.1
  6156.056   735.7553    0.1
  6156.073   736.2090    0.1
  6156.091   737.5445    0.1
  6156.108   738.8989    0.1
  6156.125   740.7188    0.1
  6156.143   745.2523    0.1
  6156.160   747.5721    0.1
  6156.178   746.8456    0.1
  6156.195   748.8748    0.1
  6156.212   750.4794    0.1
  6156.230   750.4859    0.1
  6156.247   752.3112    0.1
  6156.265   753.6330    0.1
  6156.282   753.4107    0.1
  6156.299   754.5276    0.1
  6156.317   755.5300    0.1
  6156.334   755.6038    0.1
  6156.352   755.2845    0.1
  6156.369   754.9673    0.1
  6156.386   754.6006    0.1
  6156.404   753.7992    0.1
  6156.421   753.5286    0.1
  6156.439   756.0419    0.1
  6156.456   757.5679    0.1
  6156.473   758.1249    0.1
  6156.491   758.2410    0.1
  6156.508   759.1328    0.1
  6156.526   760.0879    0.1
  6156.543   760.6799    0.1
  6156.560   763.7731    0.1
  6156.578   767.3872    0.1
  6156.595   770.7175    0.1
  6156.613   773.5095    0.1
  6156.630   775.7616    0.1
  6156.647   775.9074    0.1
  6156.665   777.1372    0.1
  6156.682   778.9312    0.1
  6156.700   778.9787    0.1
  6156.717   779.2377    0.1
  6156.734   779.8026    0.1
  6156.752   778.2943    0.1
  6156.769   776.5390    0.1
  6156.787   774.9673    0.1
  6156.804   772.2731    0.1
  6156.821   770.4192    0.1
  6156.839   768.9249    0.1
  6156.856   765.5911    0.1
  6156.874   763.2647    0.1
  6156.891   761.6342    0.1
  6156.908   760.3999    0.1
  6156.926   759.3051    0.1
  6156.943   757.7598    0.1
  6156.960   751.2232    0.1
  6156.978   748.5727    0.1
  6156.995   748.7252    0.1
  6157.013   747.1435    0.1
  6157.030   745.6727    0.1
  6157.047   744.2924    0.1
  6157.065   739.2585    0.1
  6157.082   735.4971    0.1
  6157.100   732.3406    0.1
  6157.117   727.3526    0.1
  6157.134   724.2296    0.1
  6157.152   721.7849    0.1
  6157.169   714.2450    0.1
  6157.187   707.1382    0.1
  6157.204   698.8992    0.1
  6157.221   687.1092    0.1
  6157.239   675.6624    0.1
  6157.256   660.0361    0.1
  6157.274   638.9401    0.1
  6157.291   621.8301    0.1
  6157.308   602.3502    0.1
  6157.326   572.3141    0.1
  6157.343   549.7395    0.1
  6157.361   528.9337    0.1
  6157.378   505.3418    0.1
  6157.395   488.4992    0.1
  6157.413   472.8897    0.1
  6157.430   463.7385    0.1
  6157.448   461.0335    0.1
  6157.465   462.3318    0.1
  6157.482   471.3309    0.1
  6157.500   482.4045    0.1
  6157.517   500.2714    0.1
  6157.535   525.8465    0.1
  6157.552   546.0266    0.1
  6157.569   568.5563    0.1
  6157.587   596.7325    0.1
  6157.604   618.6766    0.1
  6157.622   643.3670    0.1
  6157.639   668.7462    0.1
  6157.656   685.1307    0.1
  6157.674   699.0612    0.1
  6157.691   715.1612    0.1
  6157.709   726.4606    0.1
  6157.726   735.8085    0.1
  6157.743   745.2204    0.1
  6157.761   752.0783    0.1
  6157.778   758.7571    0.1
  6157.796   762.4126    0.1
  6157.813   764.7345    0.1
  6157.830   768.7986    0.1
  6157.848   771.3012    0.1
  6157.865   772.2186    0.1
  6157.883   772.4255    0.1
  6157.900   775.4865    0.1
  6157.917   778.0884    0.1
  6157.935   778.8921    0.1
  6157.952   779.8694    0.1
  6157.970   780.3585    0.1
  6157.987   779.5711    0.1
  6158.004   778.5818    0.1
  6158.022   777.9215    0.1
  6158.039   777.5323    0.1
  6158.057   776.9586    0.1
  6158.074   775.7757    0.1
  6158.091   772.4481    0.1
  6158.109   771.2290    0.1
  6158.126   770.3705    0.1
  6158.144   766.7432    0.1
  6158.161   765.9918    0.1
  6158.178   765.7781    0.1
  6158.196   762.6889    0.1
  6158.213   764.2773    0.1
  6158.231   765.8296    0.1
  6158.248   762.7893    0.1
  6158.265   763.3493    0.1
  6158.283   764.8032    0.1
  6158.300   764.7249    0.1
  6158.318   766.7954    0.1
  6158.335   768.4674    0.1
  6158.352   767.6744    0.1
  6158.370   770.3882    0.1
  6158.387   772.1360    0.1
  6158.405   767.7442    0.1
  6158.422   769.9467    0.1
  6158.439   773.4126    0.1
  6158.457   773.4171    0.1
  6158.474   773.8112    0.1
  6158.492   774.4088    0.1
  6158.509   774.5363    0.1
  6158.526   775.3713    0.1
  6158.544   775.7983    0.1
  6158.561   774.4227    0.1
  6158.579   773.6909    0.1
  6158.596   773.6631    0.1
  6158.613   774.3762    0.1
  6158.631   773.7869    0.1
  6158.648   772.4762    0.1
  6158.666   769.9136    0.1
  6158.683   768.9938    0.1
  6158.700   768.9168    0.1
  6158.718   768.6787    0.1
  6158.735   765.9603    0.1
  6158.753   764.2108    0.1
  6158.770   766.3587    0.1
  6158.787   765.8012    0.1
  6158.805   763.6902    0.1
  6158.822   759.7005    0.1
  6158.840   758.0845    0.1
  6158.857   756.6204    0.1
  6158.874   751.2487    0.1
  6158.892   746.3425    0.1
  6158.909   742.3927    0.1
  6158.927   735.8083    0.1
  6158.944   727.2494    0.1
  6158.961   719.5148    0.1
  6158.979   709.3741    0.1
  6158.996   700.5455    0.1
  6159.014   693.9839    0.1
  6159.031   686.2453    0.1
  6159.048   680.6918    0.1
  6159.066   677.2433    0.1
  6159.083   674.1122    0.1
  6159.101   676.1105    0.1
  6159.118   680.6776    0.1
  6159.135   689.2737    0.1
  6159.153   695.7322    0.1
  6159.170   701.6679    0.1
  6159.188   713.6774    0.1
  6159.205   726.2834    0.1
  6159.222   735.5546    0.1
  6159.240   746.6089    0.1
  6159.257   754.9676    0.1
  6159.274   760.3922    0.1
  6159.292   767.1679    0.1
  6159.309   774.1909    0.1
  6159.327   778.7225    0.1
  6159.344   782.5843    0.1
  6159.361   784.2347    0.1
  6159.379   784.9259    0.1
  6159.396   785.9126    0.1
  6159.414   787.0384    0.1
  6159.431   788.0063    0.1
  6159.448   789.3819    0.1
  6159.466   789.9582    0.1
  6159.483   790.0815    0.1
  6159.501   790.2255    0.1
  6159.518   789.5848    0.1
  6159.535   789.3375    0.1
  6159.553   789.7016    0.1
  6159.570   787.5537    0.1
  6159.588   786.0871    0.1
  6159.605   785.8689    0.1
  6159.622   786.0072    0.1
  6159.640   785.8599    0.1
  6159.657   785.3723    0.1
  6159.675   783.1279    0.1
  6159.692   782.5717    0.1
  6159.709   783.7452    0.1
  6159.727   782.3489    0.1
  6159.744   779.6416    0.1
  6159.762   775.8688    0.1
  6159.779   772.3686    0.1
  6159.796   770.8453    0.1
  6159.814   770.0338    0.1
  6159.831   766.6439    0.1
  6159.849   761.8790    0.1
  6159.866   756.0229    0.1
  6159.883   756.6791    0.1
  6159.901   756.5232    0.1
  6159.918   754.2398    0.1
  6159.936   749.1782    0.1
  6159.953   747.0452    0.1
  6159.970   746.8089    0.1
  6159.988   747.3899    0.1
  6160.005   749.6709    0.1
  6160.023   753.0170    0.1
  6160.040   753.2691    0.1
  6160.057   753.7199    0.1
  6160.075   754.9214    0.1
  6160.092   756.6876    0.1
  6160.110   756.9306    0.1
  6160.127   756.3736    0.1
  6160.144   753.0850    0.1
  6160.162   750.4259    0.1
  6160.179   748.1047    0.1
  6160.197   740.5847    0.1
  6160.214   733.0988    0.1
  6160.231   725.8733    0.1
  6160.249   709.7441    0.1
  6160.266   694.9757    0.1
  6160.284   681.1922    0.1
  6160.301   654.4199    0.1
  6160.318   632.2884    0.1
  6160.336   613.5129    0.1
  6160.353   581.1360    0.1
  6160.371   555.5336    0.1
  6160.388   536.4022    0.1
  6160.405   513.7871    0.1
  6160.423   498.7255    0.1
  6160.440   488.8863    0.1
  6160.458   480.6099    0.1
  6160.475   482.0061    0.1
  6160.492   487.7446    0.1
  6160.510   500.8140    0.1
  6160.527   518.9423    0.1
  6160.545   536.2597    0.1
  6160.562   560.3755    0.1
  6160.579   585.9028    0.1
  6160.597   607.2055    0.1
  6160.614   633.1733    0.1
  6160.632   653.9285    0.1
  6160.649   667.4721    0.1
  6160.666   681.8390    0.1
  6160.684   692.6108    0.1
  6160.701   697.9446    0.1
  6160.719   700.5118    0.1
  6160.736   697.1637    0.1
  6160.753   691.8545    0.1
  6160.771   683.6952    0.1
  6160.788   669.5876    0.1
  6160.806   655.8085    0.1
  6160.823   637.7358    0.1
  6160.840   614.4166    0.1
  6160.858   596.5854    0.1
  6160.875   577.6707    0.1
  6160.893   550.4551    0.1
  6160.910   531.0913    0.1
  6160.927   513.7529    0.1
  6160.945   493.6310    0.1
  6160.962   482.2669    0.1
  6160.980   475.3005    0.1
  6160.997   473.0177    0.1
  6161.014   475.7397    0.1
  6161.032   481.4130    0.1
  6161.049   498.3918    0.1
  6161.067   515.9891    0.1
  6161.084   533.7424    0.1
  6161.101   562.4984    0.1
  6161.119   586.6070    0.1
  6161.136   607.5985    0.1
  6161.154   637.3332    0.1
  6161.171   658.0871    0.1
  6161.188   674.7574    0.1
  6161.206   698.7526    0.1
  6161.223   713.3416    0.1
  6161.241   722.6949    0.1
  6161.258   731.9340    0.1
  6161.275   739.3013    0.1
  6161.293   744.7698    0.1
  6161.310   748.4393    0.1
  6161.328   751.5176    0.1
  6161.345   753.8060    0.1
  6161.362   754.8221    0.1
  6161.380   755.9455    0.1
  6161.397   756.1359    0.1
  6161.415   753.7807    0.1
  6161.432   754.4550    0.1
  6161.449   754.8146    0.1
  6161.467   751.8311    0.1
  6161.484   747.0934    0.1
  6161.501   742.9365    0.1
  6161.519   737.9501    0.1
  6161.536   727.6934    0.1
  6161.554   718.3689    0.1
  6161.571   707.6236    0.1
  6161.588   690.4780    0.1
  6161.606   674.5452    0.1
  6161.623   655.3034    0.1
  6161.641   625.7733    0.1
  6161.658   601.2280    0.1
  6161.675   575.4240    0.1
  6161.693   537.2986    0.1
  6161.710   505.6649    0.1
  6161.728   473.2735    0.1
  6161.745   429.1384    0.1
  6161.762   396.6162    0.1
  6161.780   367.2843    0.1
  6161.797   326.4355    0.1
  6161.815   299.1651    0.1
  6161.832   278.0660    0.1
  6161.849   254.6870    0.1
  6161.867   242.3539    0.1
  6161.884   235.4110    0.1
  6161.902   236.8979    0.1
  6161.919   245.1908    0.1
  6161.936   255.8216    0.1
  6161.954   279.2331    0.1
