#  wavelength    Flux         Std.Dev.
#  [Angstroem]   [F(5500)]    [N/A]

  6250.025   740.4506    0.1
  6250.042   737.4123    0.1
  6250.060   735.4034    0.1
  6250.077   731.6743    0.1
  6250.094   727.8142    0.1
  6250.112   727.0104    0.1
  6250.129   725.0774    0.1
  6250.147   723.3344    0.1
  6250.164   722.8838    0.1
  6250.181   723.4203    0.1
  6250.199   725.3097    0.1
  6250.216   726.1288    0.1
  6250.234   727.9161    0.1
  6250.251   732.8159    0.1
  6250.268   735.3654    0.1
  6250.286   737.5016    0.1
  6250.303   741.5439    0.1
  6250.321   744.5159    0.1
  6250.338   745.6696    0.1
  6250.355   751.3370    0.1
  6250.373   756.6534    0.1
  6250.390   757.0639    0.1
  6250.408   761.8022    0.1
  6250.425   764.9701    0.1
  6250.442   766.4829    0.1
  6250.460   768.7058    0.1
  6250.477   768.5164    0.1
  6250.495   769.7009    0.1
  6250.512   771.0404    0.1
  6250.529   772.1865    0.1
  6250.547   775.9501    0.1
  6250.564   776.1398    0.1
  6250.582   776.0540    0.1
  6250.599   777.4109    0.1
  6250.616   779.0680    0.1
  6250.634   778.8181    0.1
  6250.651   778.7777    0.1
  6250.669   779.9725    0.1
  6250.686   780.5478    0.1
  6250.703   780.6339    0.1
  6250.721   779.9291    0.1
  6250.738   778.6656    0.1
  6250.756   776.7394    0.1
  6250.773   775.1442    0.1
  6250.790   774.3324    0.1
  6250.808   771.8052    0.1
  6250.825   767.2625    0.1
  6250.843   764.1886    0.1
  6250.860   761.4808    0.1
  6250.877   756.7251    0.1
  6250.895   751.9602    0.1
  6250.912   747.9053    0.1
  6250.930   746.1505    0.1
  6250.947   744.8815    0.1
  6250.964   741.5649    0.1
  6250.982   740.9564    0.1
  6250.999   742.0747    0.1
  6251.017   742.0863    0.1
  6251.034   741.5044    0.1
  6251.051   741.8894    0.1
  6251.069   743.5350    0.1
  6251.086   745.9138    0.1
  6251.104   748.2193    0.1
  6251.121   752.5919    0.1
  6251.138   754.7555    0.1
  6251.156   755.9757    0.1
  6251.173   756.1541    0.1
  6251.191   756.3920    0.1
  6251.208   757.3017    0.1
  6251.225   756.9224    0.1
  6251.243   755.4002    0.1
  6251.260   751.8546    0.1
  6251.278   744.3400    0.1
  6251.295   735.5606    0.1
  6251.312   728.7618    0.1
  6251.330   716.5175    0.1
  6251.347   700.6152    0.1
  6251.365   685.0911    0.1
  6251.382   667.2462    0.1
  6251.399   647.4626    0.1
  6251.417   622.0167    0.1
  6251.434   602.0515    0.1
  6251.452   584.2043    0.1
  6251.469   564.2684    0.1
  6251.486   546.9829    0.1
  6251.504   535.3412    0.1
  6251.521   528.3801    0.1
  6251.539   524.2805    0.1
  6251.556   527.6579    0.1
  6251.573   536.4061    0.1
  6251.591   549.3321    0.1
  6251.608   563.6891    0.1
  6251.626   587.8657    0.1
  6251.643   611.0324    0.1
  6251.660   631.7070    0.1
  6251.678   653.0957    0.1
  6251.695   677.1250    0.1
  6251.713   694.1826    0.1
  6251.730   696.0972    0.1
  6251.747   695.0276    0.1
  6251.765   718.5704    0.1
  6251.782   742.4476    0.1
  6251.800   754.9075    0.1
  6251.817   761.6549    0.1
  6251.834   765.7939    0.1
  6251.852   767.9938    0.1
  6251.869   767.5697    0.1
  6251.887   765.2632    0.1
  6251.904   762.5238    0.1
  6251.921   755.3267    0.1
  6251.939   748.6750    0.1
  6251.956   741.3509    0.1
  6251.973   729.5540    0.1
  6251.991   714.5996    0.1
  6252.008   695.6264    0.1
  6252.026   676.9064    0.1
  6252.043   653.0130    0.1
  6252.060   625.1587    0.1
  6252.078   595.5996    0.1
  6252.095   564.7294    0.1
  6252.113   533.3744    0.1
  6252.130   492.7741    0.1
  6252.147   456.7203    0.1
  6252.165   421.0969    0.1
  6252.182   389.5556    0.1
  6252.200   358.2146    0.1
  6252.217   329.5171    0.1
  6252.234   311.6517    0.1
  6252.252   300.6917    0.1
  6252.269   294.7846    0.1
  6252.287   295.4207    0.1
  6252.304   306.1197    0.1
  6252.321   321.8277    0.1
  6252.339   343.3953    0.1
  6252.356   373.5075    0.1
  6252.374   406.9504    0.1
  6252.391   438.4717    0.1
  6252.408   470.7389    0.1
  6252.426   511.4794    0.1
  6252.443   546.0235    0.1
  6252.461   579.6582    0.1
  6252.478   608.6527    0.1
  6252.495   638.8853    0.1
  6252.513   666.1493    0.1
  6252.530   687.6757    0.1
  6252.548   706.4998    0.1
  6252.565   719.9548    0.1
  6252.582   735.6507    0.1
  6252.600   747.2377    0.1
  6252.617   755.2208    0.1
  6252.635   759.8861    0.1
  6252.652   765.1024    0.1
  6252.669   768.3485    0.1
  6252.687   769.9877    0.1
  6252.704   772.1734    0.1
  6252.722   775.5146    0.1
  6252.739   778.5688    0.1
  6252.756   779.5933    0.1
  6252.774   778.8356    0.1
  6252.791   777.8105    0.1
  6252.809   777.8798    0.1
  6252.826   779.1586    0.1
  6252.843   780.0735    0.1
  6252.861   780.8317    0.1
  6252.878   779.4308    0.1
  6252.896   777.6446    0.1
  6252.913   777.1511    0.1
  6252.930   777.6654    0.1
  6252.948   777.0044    0.1
  6252.965   777.2588    0.1
  6252.983   777.3044    0.1
  6253.000   775.5905    0.1
  6253.017   771.2291    0.1
  6253.035   769.5327    0.1
  6253.052   768.2943    0.1
  6253.070   765.0386    0.1
  6253.087   762.0818    0.1
  6253.104   759.6038    0.1
  6253.122   755.8664    0.1
  6253.139   752.2258    0.1
  6253.157   751.2045    0.1
  6253.174   746.3899    0.1
  6253.191   743.3130    0.1
  6253.209   743.3112    0.1
  6253.226   741.7320    0.1
  6253.244   739.7420    0.1
  6253.261   738.0601    0.1
  6253.278   736.7658    0.1
  6253.296   735.2247    0.1
  6253.313   734.0386    0.1
  6253.331   731.1274    0.1
  6253.348   727.0781    0.1
  6253.365   723.1089    0.1
  6253.383   714.5672    0.1
  6253.400   706.5816    0.1
  6253.418   698.7297    0.1
  6253.435   690.1001    0.1
  6253.452   680.9263    0.1
  6253.470   671.0531    0.1
  6253.487   661.4906    0.1
  6253.505   652.6369    0.1
  6253.522   646.9229    0.1
  6253.539   644.0818    0.1
  6253.557   642.3928    0.1
  6253.574   641.5802    0.1
  6253.592   642.5488    0.1
  6253.609   646.6205    0.1
  6253.626   650.4655    0.1
  6253.644   653.0150    0.1
  6253.661   654.3654    0.1
  6253.679   652.0301    0.1
  6253.696   647.1936    0.1
  6253.713   638.8796    0.1
  6253.731   627.8116    0.1
  6253.748   613.5790    0.1
  6253.766   587.1908    0.1
  6253.783   562.8863    0.1
  6253.800   533.5725    0.1
  6253.818   506.2519    0.1
  6253.835   472.3247    0.1
  6253.853   437.7843    0.1
  6253.870   409.3404    0.1
  6253.887   382.2632    0.1
  6253.905   360.0289    0.1
  6253.922   339.8325    0.1
  6253.940   329.8731    0.1
  6253.957   326.6546    0.1
  6253.974   328.9829    0.1
  6253.992   339.0968    0.1
  6254.009   358.8983    0.1
  6254.027   380.3577    0.1
  6254.044   404.4725    0.1
  6254.061   436.9200    0.1
  6254.079   468.7265    0.1
  6254.096   502.5574    0.1
  6254.114   533.4091    0.1
  6254.131   566.5696    0.1
  6254.148   600.9244    0.1
  6254.166   628.4617    0.1
  6254.183   652.4708    0.1
  6254.200   671.9219    0.1
  6254.218   695.0532    0.1
  6254.235   711.2504    0.1
  6254.253   724.8327    0.1
  6254.270   735.4378    0.1
  6254.287   739.3659    0.1
  6254.305   746.0144    0.1
  6254.322   749.6130    0.1
  6254.340   749.7792    0.1
  6254.357   749.7760    0.1
  6254.374   750.8104    0.1
  6254.392   749.8691    0.1
  6254.409   747.5598    0.1
  6254.427   744.5571    0.1
  6254.444   741.5663    0.1
  6254.461   740.7933    0.1
  6254.479   738.1184    0.1
  6254.496   735.1840    0.1
  6254.514   735.2223    0.1
  6254.531   732.3474    0.1
  6254.548   729.7386    0.1
  6254.566   728.6706    0.1
  6254.583   728.5815    0.1
  6254.601   729.4569    0.1
  6254.618   729.4542    0.1
  6254.635   727.6554    0.1
  6254.653   725.8620    0.1
  6254.670   727.1830    0.1
  6254.688   728.2405    0.1
  6254.705   729.0267    0.1
  6254.722   730.3332    0.1
  6254.740   730.8236    0.1
  6254.757   732.1716    0.1
  6254.775   735.0482    0.1
  6254.792   737.9734    0.1
  6254.809   739.9942    0.1
  6254.827   742.3906    0.1
  6254.844   745.3782    0.1
  6254.862   748.7035    0.1
  6254.879   752.0685    0.1
  6254.896   756.1580    0.1
  6254.914   757.4870    0.1
  6254.931   759.0421    0.1
  6254.949   760.3376    0.1
  6254.966   760.9493    0.1
  6254.983   762.6553    0.1
  6255.001   763.3364    0.1
  6255.018   765.3664    0.1
  6255.036   766.9706    0.1
  6255.053   766.6057    0.1
  6255.070   765.1131    0.1
  6255.088   765.7886    0.1
  6255.105   769.9176    0.1
  6255.123   774.0935    0.1
  6255.140   775.3239    0.1
  6255.157   775.4757    0.1
  6255.175   776.7291    0.1
  6255.192   779.6487    0.1
  6255.210   781.1918    0.1
  6255.227   781.0823    0.1
  6255.244   781.1804    0.1
  6255.262   781.9502    0.1
  6255.279   784.5065    0.1
  6255.297   785.0285    0.1
  6255.314   783.9525    0.1
  6255.331   783.0140    0.1
  6255.349   781.7196    0.1
  6255.366   779.7349    0.1
  6255.384   776.2460    0.1
  6255.401   771.0319    0.1
  6255.418   765.4756    0.1
  6255.436   759.0232    0.1
  6255.453   751.8415    0.1
  6255.471   744.0050    0.1
  6255.488   731.5405    0.1
  6255.505   718.4211    0.1
  6255.523   703.5101    0.1
  6255.540   688.8892    0.1
  6255.558   676.2026    0.1
  6255.575   663.2897    0.1
  6255.592   650.7740    0.1
  6255.610   637.2207    0.1
  6255.627   628.7325    0.1
  6255.645   622.5942    0.1
  6255.662   618.3303    0.1
  6255.679   616.9026    0.1
  6255.697   618.7995    0.1
  6255.714   621.9179    0.1
  6255.732   626.4182    0.1
  6255.749   633.2556    0.1
  6255.766   638.3322    0.1
  6255.784   640.7124    0.1
  6255.801   639.5432    0.1
  6255.819   633.9872    0.1
  6255.836   626.9557    0.1
  6255.853   615.5650    0.1
  6255.871   597.1428    0.1
  6255.888   578.3246    0.1
  6255.906   550.7488    0.1
  6255.923   520.7523    0.1
  6255.940   492.6126    0.1
  6255.958   461.8154    0.1
  6255.975   435.5957    0.1
  6255.993   405.0057    0.1
  6256.010   381.3679    0.1
  6256.027   363.1566    0.1
  6256.045   351.0048    0.1
  6256.062   345.4108    0.1
  6256.080   349.1382    0.1
  6256.097   358.8091    0.1
  6256.114   374.3417    0.1
  6256.132   395.3201    0.1
  6256.149   421.6320    0.1
  6256.167   455.4383    0.1
  6256.184   484.7389    0.1
  6256.201   515.8678    0.1
  6256.219   548.9824    0.1
  6256.236   583.6469    0.1
  6256.254   615.9760    0.1
  6256.271   638.4070    0.1
  6256.288   659.0940    0.1
  6256.306   681.8162    0.1
  6256.323   699.3385    0.1
  6256.341   710.8729    0.1
  6256.358   717.7488    0.1
  6256.375   721.5343    0.1
  6256.393   725.9373    0.1
  6256.410   724.5390    0.1
  6256.428   721.1857    0.1
  6256.445   718.0602    0.1
  6256.462   710.4068    0.1
  6256.480   704.0150    0.1
  6256.497   697.1514    0.1
  6256.514   689.8401    0.1
  6256.532   683.0355    0.1
  6256.549   674.7351    0.1
  6256.567   668.2126    0.1
  6256.584   664.4841    0.1
  6256.601   664.8802    0.1
  6256.619   668.3019    0.1
  6256.636   671.8457    0.1
  6256.654   675.2245    0.1
  6256.671   681.7724    0.1
  6256.688   690.3265    0.1
  6256.706   701.2887    0.1
  6256.723   712.4326    0.1
  6256.741   721.4570    0.1
  6256.758   732.7530    0.1
  6256.775   742.5508    0.1
  6256.793   750.9123    0.1
  6256.810   756.9894    0.1
  6256.828   762.2193    0.1
  6256.845   767.9784    0.1
  6256.862   770.0927    0.1
  6256.880   772.3516    0.1
  6256.897   775.7108    0.1
  6256.915   777.9480    0.1
  6256.932   777.9779    0.1
  6256.949   779.7465    0.1
  6256.967   780.8296    0.1
  6256.984   780.4501    0.1
  6257.002   779.6126    0.1
  6257.019   779.6080    0.1
  6257.036   778.9274    0.1
  6257.054   776.8930    0.1
  6257.071   776.0477    0.1
  6257.089   776.2000    0.1
  6257.106   774.1462    0.1
  6257.123   770.4273    0.1
  6257.141   766.3459    0.1
  6257.158   764.8400    0.1
  6257.176   763.7487    0.1
  6257.193   759.5622    0.1
  6257.210   754.9479    0.1
  6257.228   749.8083    0.1
  6257.245   746.0490    0.1
  6257.263   743.8828    0.1
  6257.280   740.6736    0.1
  6257.297   736.8332    0.1
  6257.315   732.9955    0.1
  6257.332   731.3394    0.1
  6257.350   730.1205    0.1
  6257.367   729.1709    0.1
  6257.384   728.1044    0.1
  6257.402   726.4034    0.1
  6257.419   726.9111    0.1
  6257.437   728.4691    0.1
  6257.454   731.1310    0.1
  6257.471   731.8638    0.1
  6257.489   728.7222    0.1
  6257.506   726.9435    0.1
  6257.524   727.1166    0.1
  6257.541   723.6479    0.1
  6257.558   718.0024    0.1
  6257.576   710.6885    0.1
  6257.593   701.8623    0.1
  6257.611   686.2068    0.1
  6257.628   670.4867    0.1
  6257.645   652.8872    0.1
  6257.663   630.5809    0.1
  6257.680   609.3014    0.1
  6257.698   580.3860    0.1
  6257.715   556.8764    0.1
  6257.732   535.1323    0.1
  6257.750   511.9918    0.1
  6257.767   492.6216    0.1
  6257.785   477.2352    0.1
  6257.802   469.4224    0.1
  6257.819   466.8922    0.1
  6257.837   468.7245    0.1
  6257.854   478.2358    0.1
  6257.872   495.6695    0.1
  6257.889   513.6756    0.1
  6257.906   537.7208    0.1
  6257.924   564.2189    0.1
  6257.941   587.6142    0.1
  6257.959   611.2218    0.1
  6257.976   630.4522    0.1
  6257.993   650.6153    0.1
  6258.011   667.8293    0.1
  6258.028   679.1167    0.1
  6258.046   685.4772    0.1
  6258.063   689.6101    0.1
  6258.080   688.6118    0.1
  6258.098   684.7351    0.1
  6258.115   677.6241    0.1
  6258.133   666.3568    0.1
  6258.150   654.9132    0.1
  6258.167   633.4015    0.1
  6258.185   612.5347    0.1
  6258.202   591.9688    0.1
  6258.220   567.6383    0.1
  6258.237   545.3319    0.1
  6258.254   513.5605    0.1
  6258.272   487.5408    0.1
  6258.289   464.0619    0.1
  6258.307   442.1588    0.1
  6258.324   422.7164    0.1
  6258.341   406.6988    0.1
  6258.359   396.7721    0.1
  6258.376   389.9778    0.1
  6258.394   387.6715    0.1
  6258.411   388.6253    0.1
  6258.428   399.4548    0.1
  6258.446   412.1146    0.1
  6258.463   427.9334    0.1
  6258.481   448.4804    0.1
  6258.498   474.2146    0.1
  6258.515   500.4210    0.1
  6258.533   522.6075    0.1
  6258.550   549.6403    0.1
  6258.568   575.9396    0.1
  6258.585   598.5299    0.1
  6258.602   621.8123    0.1
  6258.620   640.2044    0.1
  6258.637   657.3726    0.1
  6258.655   672.9213    0.1
  6258.672   688.2446    0.1
  6258.689   701.3749    0.1
  6258.707   710.8101    0.1
  6258.724   722.1100    0.1
  6258.741   732.4104    0.1
  6258.759   742.6027    0.1
  6258.776   750.4624    0.1
  6258.794   755.9349    0.1
  6258.811   764.0266    0.1
  6258.828   769.8477    0.1
  6258.846   775.0861    0.1
  6258.863   780.4590    0.1
  6258.881   784.6193    0.1
  6258.898   788.0224    0.1
  6258.915   789.0452    0.1
  6258.933   789.2124    0.1
  6258.950   788.7997    0.1
  6258.968   787.7879    0.1
  6258.985   785.6190    0.1
  6259.002   782.4302    0.1
  6259.020   778.1897    0.1
  6259.037   772.6337    0.1
  6259.055   766.1943    0.1
  6259.072   757.9226    0.1
  6259.089   751.4559    0.1
  6259.107   743.1072    0.1
  6259.124   731.8631    0.1
  6259.142   720.1861    0.1
  6259.159   708.5172    0.1
  6259.176   694.9712    0.1
  6259.194   681.6546    0.1
  6259.211   670.7786    0.1
  6259.229   660.9560    0.1
  6259.246   652.0759    0.1
  6259.263   645.2685    0.1
  6259.281   641.4681    0.1
  6259.298   639.8280    0.1
  6259.316   639.2700    0.1
  6259.333   644.4322    0.1
  6259.350   649.7088    0.1
  6259.368   657.8321    0.1
  6259.385   666.3493    0.1
  6259.403   674.1847    0.1
  6259.420   685.9883    0.1
  6259.437   695.2736    0.1
  6259.455   704.9460    0.1
  6259.472   712.1892    0.1
  6259.490   717.6855    0.1
  6259.507   725.3891    0.1
  6259.524   732.3023    0.1
  6259.542   738.4025    0.1
  6259.559   741.3908    0.1
  6259.577   742.2034    0.1
  6259.594   744.4320    0.1
  6259.611   747.8427    0.1
  6259.629   752.1446    0.1
  6259.646   753.8033    0.1
  6259.664   756.0925    0.1
  6259.681   757.1234    0.1
  6259.698   758.2453    0.1
  6259.716   762.4055    0.1
  6259.733   766.6239    0.1
  6259.751   770.7901    0.1
  6259.768   773.1037    0.1
  6259.785   774.9791    0.1
  6259.803   778.5053    0.1
  6259.820   782.2060    0.1
  6259.838   784.0358    0.1
  6259.855   786.7171    0.1
  6259.872   788.1101    0.1
  6259.890   787.2662    0.1
  6259.907   786.9647    0.1
  6259.925   786.9843    0.1
  6259.942   787.3910    0.1
  6259.959   787.6126    0.1
  6259.977   789.3634    0.1
  6259.994   790.9641    0.1
  6260.012   788.9825    0.1
  6260.029   787.5705    0.1
  6260.046   786.3966    0.1
  6260.064   787.4191    0.1
  6260.081   788.7154    0.1
  6260.099   786.5682    0.1
  6260.116   785.6047    0.1
  6260.133   786.0312    0.1
  6260.151   786.1962    0.1
  6260.168   785.3398    0.1
  6260.186   781.5483    0.1
  6260.203   780.2998    0.1
  6260.220   778.9064    0.1
  6260.238   778.4325    0.1
  6260.255   778.0215    0.1
  6260.273   775.4051    0.1
  6260.290   773.7913    0.1
  6260.307   774.1156    0.1
  6260.325   774.1524    0.1
  6260.342   774.4670    0.1
  6260.360   775.0338    0.1
  6260.377   774.1503    0.1
  6260.394   772.9978    0.1
  6260.412   772.8004    0.1
  6260.429   773.2752    0.1
  6260.447   772.6069    0.1
  6260.464   770.4143    0.1
  6260.481   768.5969    0.1
  6260.499   766.0123    0.1
  6260.516   763.4305    0.1
  6260.534   754.6340    0.1
  6260.551   745.2677    0.1
  6260.568   736.7956    0.1
  6260.586   725.0149    0.1
  6260.603   712.2668    0.1
  6260.621   687.0274    0.1
  6260.638   664.6314    0.1
  6260.655   644.2844    0.1
  6260.673   618.0616    0.1
  6260.690   593.9313    0.1
  6260.708   563.9570    0.1
  6260.725   536.7068    0.1
  6260.742   513.4907    0.1
  6260.760   491.1707    0.1
  6260.777   475.0510    0.1
  6260.795   460.1706    0.1
  6260.812   452.8234    0.1
  6260.829   450.7517    0.1
  6260.847   455.6535    0.1
  6260.864   463.9491    0.1
  6260.882   483.4671    0.1
  6260.899   503.7447    0.1
  6260.916   524.7212    0.1
  6260.934   550.3744    0.1
  6260.951   572.8811    0.1
  6260.968   602.5818    0.1
  6260.986   629.0177    0.1
  6261.003   650.8552    0.1
  6261.021   673.3102    0.1
  6261.038   690.8778    0.1
  6261.055   711.0095    0.1
  6261.073   726.0081    0.1
  6261.090   738.1850    0.1
  6261.108   748.6100    0.1
  6261.125   755.9845    0.1
  6261.142   765.6654    0.1
  6261.160   770.8491    0.1
  6261.177   772.3074    0.1
  6261.195   773.9616    0.1
  6261.212   775.0924    0.1
  6261.229   775.7667    0.1
  6261.247   774.6452    0.1
  6261.264   774.1055    0.1
  6261.282   768.3090    0.1
  6261.299   764.9371    0.1
  6261.316   768.6002    0.1
  6261.334   774.5255    0.1
  6261.351   781.4902    0.1
  6261.369   784.2684    0.1
  6261.386   784.3736    0.1
  6261.403   781.5868    0.1
  6261.421   783.1845    0.1
  6261.438   786.0394    0.1
  6261.456   786.7666    0.1
  6261.473   786.3512    0.1
  6261.490   785.7352    0.1
  6261.508   785.1628    0.1
  6261.525   783.9880    0.1
  6261.543   781.2123    0.1
  6261.560   778.6123    0.1
  6261.577   774.8042    0.1
  6261.595   771.8627    0.1
  6261.612   768.4292    0.1
  6261.630   764.2711    0.1
  6261.647   760.2428    0.1
  6261.664   753.8334    0.1
  6261.682   747.2367    0.1
  6261.699   740.8031    0.1
  6261.717   733.6526    0.1
  6261.734   728.0675    0.1
  6261.751   720.5605    0.1
  6261.769   713.4846    0.1
  6261.786   705.3081    0.1
  6261.804   695.7493    0.1
  6261.821   688.6012    0.1
  6261.838   682.2201    0.1
  6261.856   672.9280    0.1
  6261.873   666.5111    0.1
  6261.891   660.8719    0.1
  6261.908   656.5353    0.1
  6261.925   654.1284    0.1
  6261.943   651.8956    0.1
  6261.960   650.1322    0.1
