#  wavelength    Flux         Std.Dev.
#  [Angstroem]   [F(5500)]    [N/A]

  6180.013   527.9055    0.1
  6180.031   549.5304    0.1
  6180.048   578.4002    0.1
  6180.066   606.0414    0.1
  6180.083   629.0725    0.1
  6180.100   651.3010    0.1
  6180.118   674.5376    0.1
  6180.135   693.3285    0.1
  6180.153   708.5555    0.1
  6180.170   722.9972    0.1
  6180.187   734.2147    0.1
  6180.205   742.3180    0.1
  6180.222   750.5852    0.1
  6180.240   761.6345    0.1
  6180.257   765.4587    0.1
  6180.274   766.7971    0.1
  6180.292   768.0232    0.1
  6180.309   767.5161    0.1
  6180.327   770.1399    0.1
  6180.344   772.3139    0.1
  6180.361   773.0167    0.1
  6180.379   772.9986    0.1
  6180.396   773.7356    0.1
  6180.414   774.5393    0.1
  6180.431   775.1278    0.1
  6180.448   775.0064    0.1
  6180.466   773.8253    0.1
  6180.483   773.0569    0.1
  6180.501   773.6669    0.1
  6180.518   774.5253    0.1
  6180.535   774.3988    0.1
  6180.553   774.1959    0.1
  6180.570   775.0142    0.1
  6180.588   775.4399    0.1
  6180.605   776.3179    0.1
  6180.622   777.6861    0.1
  6180.640   779.0872    0.1
  6180.657   779.9695    0.1
  6180.675   778.6571    0.1
  6180.692   776.1043    0.1
  6180.709   778.7335    0.1
  6180.727   779.9332    0.1
  6180.744   779.4352    0.1
  6180.762   778.7375    0.1
  6180.779   783.3462    0.1
  6180.796   785.9732    0.1
  6180.814   786.9971    0.1
  6180.831   788.2582    0.1
  6180.849   790.9797    0.1
  6180.866   791.8798    0.1
  6180.883   791.6594    0.1
  6180.901   791.7258    0.1
  6180.918   791.2626    0.1
  6180.936   792.4878    0.1
  6180.953   794.6198    0.1
  6180.970   794.7955    0.1
  6180.988   792.4115    0.1
  6181.005   789.7709    0.1
  6181.023   787.7794    0.1
  6181.040   788.6440    0.1
  6181.057   786.9637    0.1
  6181.075   784.6381    0.1
  6181.092   783.2210    0.1
  6181.110   782.2166    0.1
  6181.127   780.6601    0.1
  6181.144   779.3189    0.1
  6181.162   778.5499    0.1
  6181.179   774.8300    0.1
  6181.197   774.4041    0.1
  6181.214   775.2967    0.1
  6181.231   774.0350    0.1
  6181.249   773.1632    0.1
  6181.266   771.1348    0.1
  6181.284   769.6494    0.1
  6181.301   774.1842    0.1
  6181.318   776.1288    0.1
  6181.336   778.1781    0.1
  6181.353   781.3144    0.1
  6181.371   782.0970    0.1
  6181.388   781.9194    0.1
  6181.405   782.5546    0.1
  6181.423   783.9237    0.1
  6181.440   784.7824    0.1
  6181.458   784.6453    0.1
  6181.475   783.6820    0.1
  6181.492   782.0885    0.1
  6181.510   780.9526    0.1
  6181.527   780.5746    0.1
  6181.545   780.9131    0.1
  6181.562   782.2022    0.1
  6181.579   782.0020    0.1
  6181.597   780.8950    0.1
  6181.614   779.9663    0.1
  6181.632   779.6871    0.1
  6181.649   779.4057    0.1
  6181.666   778.4577    0.1
  6181.684   777.5180    0.1
  6181.701   777.8597    0.1
  6181.719   781.8970    0.1
  6181.736   783.4750    0.1
  6181.753   782.5620    0.1
  6181.771   781.7113    0.1
  6181.788   783.9100    0.1
  6181.806   784.8397    0.1
  6181.823   783.8973    0.1
  6181.840   784.4566    0.1
  6181.858   781.8755    0.1
  6181.875   780.4009    0.1
  6181.892   781.6524    0.1
  6181.910   781.2740    0.1
  6181.927   779.9352    0.1
  6181.945   777.8486    0.1
  6181.962   774.6520    0.1
  6181.979   775.9539    0.1
  6181.997   775.9380    0.1
  6182.014   774.6713    0.1
  6182.032   773.7765    0.1
  6182.049   775.1054    0.1
  6182.066   774.9942    0.1
  6182.084   774.4019    0.1
  6182.101   775.4724    0.1
  6182.119   776.9158    0.1
  6182.136   776.7967    0.1
  6182.153   776.3666    0.1
  6182.171   777.8596    0.1
  6182.188   777.3738    0.1
  6182.206   776.4331    0.1
  6182.223   776.1080    0.1
  6182.240   776.7938    0.1
  6182.258   776.2850    0.1
  6182.275   775.0460    0.1
  6182.293   773.9460    0.1
  6182.310   775.0672    0.1
  6182.327   774.1220    0.1
  6182.345   773.7247    0.1
  6182.362   774.7917    0.1
  6182.380   774.3583    0.1
  6182.397   774.4046    0.1
  6182.414   775.6663    0.1
  6182.432   777.7783    0.1
  6182.449   778.8601    0.1
  6182.467   778.0478    0.1
  6182.484   777.8695    0.1
  6182.501   779.4785    0.1
  6182.519   780.4505    0.1
  6182.536   779.7335    0.1
  6182.554   778.6722    0.1
  6182.571   777.9510    0.1
  6182.588   777.2832    0.1
  6182.606   775.4222    0.1
  6182.623   773.4011    0.1
  6182.641   772.0582    0.1
  6182.658   768.3810    0.1
  6182.675   766.2747    0.1
  6182.693   764.1582    0.1
  6182.710   758.5278    0.1
  6182.728   757.8780    0.1
  6182.745   758.6004    0.1
  6182.762   758.2745    0.1
  6182.780   756.4943    0.1
  6182.797   755.6151    0.1
  6182.815   755.1532    0.1
  6182.832   755.7487    0.1
  6182.849   761.0685    0.1
  6182.867   764.5522    0.1
  6182.884   764.0392    0.1
  6182.902   762.4082    0.1
  6182.919   764.3640    0.1
  6182.936   767.2333    0.1
  6182.954   767.5141    0.1
  6182.971   766.2036    0.1
  6182.989   767.1796    0.1
  6183.006   766.2317    0.1
  6183.023   762.8867    0.1
  6183.041   758.3787    0.1
  6183.058   753.5476    0.1
  6183.076   750.7260    0.1
  6183.093   746.7793    0.1
  6183.110   740.9088    0.1
  6183.128   735.7614    0.1
  6183.145   728.7030    0.1
  6183.163   722.0971    0.1
  6183.180   716.6614    0.1
  6183.197   709.5760    0.1
  6183.215   704.2156    0.1
  6183.232   700.2273    0.1
  6183.250   696.5642    0.1
  6183.267   692.0598    0.1
  6183.284   689.3846    0.1
  6183.302   689.1591    0.1
  6183.319   691.1756    0.1
  6183.337   694.6231    0.1
  6183.354   695.9052    0.1
  6183.371   698.3377    0.1
  6183.389   704.3840    0.1
  6183.406   709.3771    0.1
  6183.424   712.8148    0.1
  6183.441   714.7980    0.1
  6183.458   715.0096    0.1
  6183.476   718.4574    0.1
  6183.493   719.6911    0.1
  6183.511   719.5141    0.1
  6183.528   719.7550    0.1
  6183.545   716.7159    0.1
  6183.563   715.8580    0.1
  6183.580   715.5730    0.1
  6183.598   713.4131    0.1
  6183.615   718.3221    0.1
  6183.632   720.9317    0.1
  6183.650   722.1047    0.1
  6183.667   726.5592    0.1
  6183.685   727.5386    0.1
  6183.702   730.4007    0.1
  6183.719   735.1517    0.1
  6183.737   741.1571    0.1
  6183.754   748.3273    0.1
  6183.772   754.5411    0.1
  6183.789   759.0125    0.1
  6183.806   761.7128    0.1
  6183.824   765.7474    0.1
  6183.841   769.2348    0.1
  6183.859   771.9493    0.1
  6183.876   772.9831    0.1
  6183.893   773.5303    0.1
  6183.911   775.6116    0.1
  6183.928   777.0558    0.1
  6183.946   775.7520    0.1
  6183.963   777.4090    0.1
  6183.980   779.7529    0.1
  6183.998   780.8596    0.1
  6184.015   779.3317    0.1
  6184.033   782.4061    0.1
  6184.050   784.6547    0.1
  6184.067   783.5701    0.1
  6184.085   783.1273    0.1
  6184.102   785.7426    0.1
  6184.119   786.9359    0.1
  6184.137   787.0227    0.1
  6184.154   788.6760    0.1
  6184.172   789.7954    0.1
  6184.189   788.6642    0.1
  6184.206   786.9471    0.1
  6184.224   786.5033    0.1
  6184.241   785.7018    0.1
  6184.259   786.9240    0.1
  6184.276   787.7141    0.1
  6184.293   783.5314    0.1
  6184.311   783.3134    0.1
  6184.328   783.6765    0.1
  6184.346   783.2287    0.1
  6184.363   782.2343    0.1
  6184.380   782.3977    0.1
  6184.398   783.2305    0.1
  6184.415   783.6809    0.1
  6184.433   782.5332    0.1
  6184.450   779.7592    0.1
  6184.467   778.8008    0.1
  6184.485   779.5594    0.1
  6184.502   781.5521    0.1
  6184.520   783.6140    0.1
  6184.537   782.8722    0.1
  6184.554   780.9930    0.1
  6184.572   780.4416    0.1
  6184.589   781.2697    0.1
  6184.607   780.1994    0.1
  6184.624   777.9196    0.1
  6184.641   777.3674    0.1
  6184.659   780.9372    0.1
  6184.676   780.4285    0.1
  6184.694   778.3973    0.1
  6184.711   779.3662    0.1
  6184.728   779.9345    0.1
  6184.746   779.3106    0.1
  6184.763   778.4635    0.1
  6184.781   779.3042    0.1
  6184.798   779.3100    0.1
  6184.815   778.4710    0.1
  6184.833   778.1472    0.1
  6184.850   778.6317    0.1
  6184.868   776.7227    0.1
  6184.885   775.1454    0.1
  6184.902   773.4003    0.1
  6184.920   769.6958    0.1
  6184.937   766.9551    0.1
  6184.955   766.5639    0.1
  6184.972   767.0023    0.1
  6184.989   765.8864    0.1
  6185.007   766.3526    0.1
  6185.024   763.9042    0.1
  6185.042   761.4958    0.1
  6185.059   762.9111    0.1
  6185.076   762.3358    0.1
  6185.094   762.2500    0.1
  6185.111   762.8442    0.1
  6185.129   762.4079    0.1
  6185.146   759.2034    0.1
  6185.163   757.8811    0.1
  6185.181   755.6926    0.1
  6185.198   752.3172    0.1
  6185.216   745.3402    0.1
  6185.233   738.7567    0.1
  6185.250   732.5131    0.1
  6185.268   727.4055    0.1
  6185.285   721.1587    0.1
  6185.303   712.0979    0.1
  6185.320   703.9349    0.1
  6185.337   696.2891    0.1
  6185.355   690.6784    0.1
  6185.372   685.2158    0.1
  6185.390   683.2869    0.1
  6185.407   684.5201    0.1
  6185.424   685.2577    0.1
  6185.442   687.9991    0.1
  6185.459   692.4977    0.1
  6185.477   698.4486    0.1
  6185.494   707.0478    0.1
  6185.511   714.9306    0.1
  6185.529   722.6423    0.1
  6185.546   731.1104    0.1
  6185.564   736.8773    0.1
  6185.581   743.1181    0.1
  6185.598   750.7355    0.1
  6185.616   756.5163    0.1
  6185.633   756.2153    0.1
  6185.651   755.9626    0.1
  6185.668   754.6883    0.1
  6185.685   750.9562    0.1
  6185.703   745.6944    0.1
  6185.720   738.9705    0.1
  6185.738   733.0368    0.1
  6185.755   725.6462    0.1
  6185.772   715.8754    0.1
  6185.790   704.8881    0.1
  6185.807   696.3363    0.1
  6185.825   689.1146    0.1
  6185.842   680.2924    0.1
  6185.859   676.1969    0.1
  6185.877   671.7331    0.1
  6185.894   668.2395    0.1
  6185.912   668.1889    0.1
  6185.929   672.0841    0.1
  6185.946   676.2131    0.1
  6185.964   681.7381    0.1
  6185.981   687.0776    0.1
  6185.999   696.6894    0.1
  6186.016   705.9835    0.1
  6186.033   713.8414    0.1
  6186.051   723.6853    0.1
  6186.068   731.0256    0.1
  6186.086   737.6391    0.1
  6186.103   743.6419    0.1
  6186.120   747.3258    0.1
  6186.138   753.1194    0.1
  6186.155   753.6341    0.1
  6186.173   752.3934    0.1
  6186.190   750.0686    0.1
  6186.207   742.9856    0.1
  6186.225   735.6575    0.1
  6186.242   727.8009    0.1
  6186.260   717.4043    0.1
  6186.277   705.3840    0.1
  6186.294   690.8347    0.1
  6186.312   675.7720    0.1
  6186.329   661.4480    0.1
  6186.346   643.7593    0.1
  6186.364   626.5863    0.1
  6186.381   614.6695    0.1
  6186.399   606.3534    0.1
  6186.416   599.2036    0.1
  6186.433   597.9144    0.1
  6186.451   600.9584    0.1
  6186.468   606.7205    0.1
  6186.486   613.0476    0.1
  6186.503   627.2175    0.1
  6186.520   641.2596    0.1
  6186.538   653.7309    0.1
  6186.555   668.9340    0.1
  6186.573   688.0470    0.1
  6186.590   703.7352    0.1
  6186.607   715.8698    0.1
  6186.625   727.2019    0.1
  6186.642   738.7458    0.1
  6186.660   747.6892    0.1
  6186.677   753.3742    0.1
  6186.694   757.1615    0.1
  6186.712   763.0344    0.1
  6186.729   762.7208    0.1
  6186.747   761.7084    0.1
  6186.764   761.9773    0.1
  6186.781   760.5230    0.1
  6186.799   761.2244    0.1
  6186.816   757.9368    0.1
  6186.834   752.8784    0.1
  6186.851   750.2413    0.1
  6186.868   745.2019    0.1
  6186.886   741.8705    0.1
  6186.903   738.9291    0.1
  6186.921   733.8046    0.1
  6186.938   730.1479    0.1
  6186.955   725.3287    0.1
  6186.973   720.1701    0.1
  6186.990   716.2710    0.1
  6187.008   711.0183    0.1
  6187.025   706.4870    0.1
  6187.042   703.0732    0.1
  6187.060   699.6387    0.1
  6187.077   698.8991    0.1
  6187.095   699.0851    0.1
  6187.112   699.6701    0.1
  6187.129   700.9637    0.1
  6187.147   705.0593    0.1
  6187.164   710.9133    0.1
  6187.182   716.9395    0.1
  6187.199   722.5577    0.1
  6187.216   729.1416    0.1
  6187.234   738.4865    0.1
  6187.251   745.0439    0.1
  6187.269   751.0967    0.1
  6187.286   757.2565    0.1
  6187.303   762.1184    0.1
  6187.321   764.5405    0.1
  6187.338   766.6526    0.1
  6187.356   767.9655    0.1
  6187.373   767.6681    0.1
  6187.390   767.0328    0.1
  6187.408   763.9128    0.1
  6187.425   758.9460    0.1
  6187.443   752.5501    0.1
  6187.460   744.1703    0.1
  6187.477   733.1562    0.1
  6187.495   720.6533    0.1
  6187.512   704.9032    0.1
  6187.530   684.6979    0.1
  6187.547   666.5734    0.1
  6187.564   645.8987    0.1
  6187.582   624.9827    0.1
  6187.599   600.2516    0.1
  6187.617   580.4159    0.1
  6187.634   563.7487    0.1
  6187.651   545.0999    0.1
  6187.669   528.5865    0.1
  6187.686   517.0573    0.1
  6187.704   514.3990    0.1
  6187.721   517.9372    0.1
  6187.738   529.5218    0.1
  6187.756   542.0866    0.1
  6187.773   560.5023    0.1
  6187.791   580.6133    0.1
  6187.808   605.0772    0.1
  6187.825   629.5180    0.1
  6187.843   650.6047    0.1
  6187.860   672.7632    0.1
  6187.878   693.2837    0.1
  6187.895   713.7957    0.1
  6187.912   729.8645    0.1
  6187.930   742.4511    0.1
  6187.947   753.8352    0.1
  6187.965   762.0181    0.1
  6187.982   766.2844    0.1
  6187.999   770.0534    0.1
  6188.017   774.6207    0.1
  6188.034   776.4806    0.1
  6188.052   777.0235    0.1
  6188.069   777.2586    0.1
  6188.086   777.5622    0.1
  6188.104   775.5089    0.1
  6188.121   774.6611    0.1
  6188.139   773.7559    0.1
  6188.156   772.9484    0.1
  6188.173   770.5880    0.1
  6188.191   770.7797    0.1
  6188.208   772.2290    0.1
  6188.226   772.2046    0.1
  6188.243   770.1961    0.1
  6188.260   771.4922    0.1
  6188.278   772.6909    0.1
  6188.295   774.2209    0.1
  6188.313   776.4519    0.1
  6188.330   776.3914    0.1
  6188.347   777.4505    0.1
  6188.365   778.3277    0.1
  6188.382   776.4408    0.1
  6188.400   773.0748    0.1
  6188.417   772.6617    0.1
  6188.434   771.9181    0.1
  6188.452   766.9643    0.1
  6188.469   757.7902    0.1
  6188.487   749.2639    0.1
  6188.504   740.3592    0.1
  6188.521   729.9721    0.1
  6188.539   715.9367    0.1
  6188.556   701.0007    0.1
  6188.574   686.0788    0.1
  6188.591   671.1028    0.1
  6188.608   655.4639    0.1
  6188.626   638.9180    0.1
  6188.643   623.7848    0.1
  6188.660   613.3215    0.1
  6188.678   607.0115    0.1
  6188.695   601.4877    0.1
  6188.713   600.0986    0.1
  6188.730   602.0714    0.1
  6188.747   607.4327    0.1
  6188.765   613.9466    0.1
  6188.782   626.2302    0.1
  6188.800   640.8071    0.1
  6188.817   654.4876    0.1
  6188.834   668.0422    0.1
  6188.852   682.7569    0.1
  6188.869   698.0267    0.1
  6188.887   709.7536    0.1
  6188.904   718.8590    0.1
  6188.921   725.2799    0.1
  6188.939   731.4811    0.1
  6188.956   736.8432    0.1
  6188.974   739.6821    0.1
  6188.991   740.6384    0.1
  6189.008   741.0768    0.1
  6189.026   740.1651    0.1
  6189.043   741.5018    0.1
  6189.061   742.9216    0.1
  6189.078   744.9254    0.1
  6189.095   743.5630    0.1
  6189.113   743.8679    0.1
  6189.130   747.2082    0.1
  6189.148   750.0659    0.1
  6189.165   753.1275    0.1
  6189.182   757.2069    0.1
  6189.200   761.1647    0.1
  6189.217   766.0397    0.1
  6189.235   770.0685    0.1
  6189.252   772.8224    0.1
  6189.269   775.8110    0.1
  6189.287   779.3552    0.1
  6189.304   780.7744    0.1
  6189.322   782.5850    0.1
  6189.339   783.2654    0.1
  6189.356   782.5206    0.1
  6189.374   783.0935    0.1
  6189.391   785.7235    0.1
  6189.409   786.3206    0.1
  6189.426   785.5884    0.1
  6189.443   784.1398    0.1
  6189.461   787.0721    0.1
  6189.478   787.1138    0.1
  6189.496   785.6635    0.1
  6189.513   784.7634    0.1
  6189.530   787.8718    0.1
  6189.548   788.3227    0.1
  6189.565   787.8314    0.1
  6189.583   787.6081    0.1
  6189.600   786.2299    0.1
  6189.617   784.6524    0.1
  6189.635   787.5137    0.1
  6189.652   789.8503    0.1
  6189.670   789.5316    0.1
  6189.687   789.9033    0.1
  6189.704   789.9469    0.1
  6189.722   788.2482    0.1
  6189.739   787.8288    0.1
  6189.757   789.9736    0.1
  6189.774   788.2685    0.1
  6189.791   788.1013    0.1
  6189.809   789.1253    0.1
  6189.826   787.0900    0.1
  6189.844   786.2092    0.1
  6189.861   786.0046    0.1
  6189.878   784.6741    0.1
  6189.896   782.0085    0.1
  6189.913   781.1166    0.1
  6189.931   777.3177    0.1
  6189.948   775.0492    0.1
  6189.965   773.8231    0.1
  6189.983   771.1413    0.1
  6190.000   769.5807    0.1
  6190.018   766.7663    0.1
  6190.035   764.2997    0.1
  6190.052   762.8763    0.1
  6190.070   761.5443    0.1
  6190.087   759.8771    0.1
  6190.105   758.1669    0.1
  6190.122   757.6248    0.1
  6190.139   756.6492    0.1
  6190.157   757.7794    0.1
  6190.174   761.0590    0.1
  6190.192   764.6317    0.1
  6190.209   766.0170    0.1
  6190.226   767.9766    0.1
  6190.244   770.4214    0.1
  6190.261   771.9341    0.1
  6190.279   774.0098    0.1
  6190.296   776.2059    0.1
  6190.313   776.3380    0.1
  6190.331   777.1253    0.1
  6190.348   777.5544    0.1
  6190.366   775.8743    0.1
  6190.383   777.6576    0.1
  6190.400   779.2915    0.1
  6190.418   779.5676    0.1
  6190.435   779.7414    0.1
  6190.453   778.5592    0.1
  6190.470   776.8490    0.1
  6190.487   774.8085    0.1
  6190.505   771.9756    0.1
  6190.522   770.0566    0.1
  6190.540   766.4526    0.1
  6190.557   760.0492    0.1
  6190.574   753.8342    0.1
  6190.592   749.8712    0.1
  6190.609   741.3102    0.1
  6190.627   729.1081    0.1
  6190.644   715.4470    0.1
  6190.661   697.5847    0.1
  6190.679   681.2411    0.1
  6190.696   656.9296    0.1
  6190.714   630.8613    0.1
  6190.731   606.2824    0.1
  6190.748   578.2791    0.1
  6190.766   546.9897    0.1
  6190.783   510.5089    0.1
  6190.801   481.0651    0.1
  6190.818   455.5625    0.1
  6190.835   429.8199    0.1
  6190.853   408.0861    0.1
  6190.870   392.9475    0.1
  6190.887   384.0263    0.1
  6190.905   379.2556    0.1
  6190.922   383.2492    0.1
  6190.940   390.8965    0.1
  6190.957   404.0475    0.1
  6190.974   417.0414    0.1
  6190.992   429.5599    0.1
  6191.009   443.8779    0.1
  6191.027   452.8659    0.1
  6191.044   458.4675    0.1
  6191.061   461.0631    0.1
  6191.079   460.3097    0.1
  6191.096   452.0094    0.1
  6191.114   441.1733    0.1
  6191.131   423.1996    0.1
  6191.148   404.3473    0.1
  6191.166   378.2240    0.1
  6191.183   353.6027    0.1
  6191.201   332.1190    0.1
  6191.218   310.4660    0.1
  6191.235   291.6655    0.1
  6191.253   278.8252    0.1
  6191.270   273.7548    0.1
  6191.288   273.4091    0.1
  6191.305   279.9063    0.1
  6191.322   295.6381    0.1
  6191.340   316.2909    0.1
  6191.357   339.4419    0.1
  6191.375   365.6211    0.1
  6191.392   401.0539    0.1
  6191.409   435.2001    0.1
  6191.427   469.5467    0.1
  6191.444   501.6223    0.1
  6191.462   533.9885    0.1
  6191.479   573.5166    0.1
  6191.496   602.7878    0.1
  6191.514   628.3329    0.1
  6191.531   650.0604    0.1
  6191.549   674.7079    0.1
  6191.566   692.5116    0.1
  6191.583   703.7512    0.1
  6191.601   716.5974    0.1
  6191.618   728.4856    0.1
  6191.636   735.4375    0.1
  6191.653   739.9077    0.1
  6191.670   742.7916    0.1
  6191.688   743.3136    0.1
  6191.705   743.7023    0.1
  6191.723   744.1932    0.1
  6191.740   744.4989    0.1
  6191.757   745.1152    0.1
  6191.775   746.0536    0.1
  6191.792   746.6013    0.1
  6191.810   747.4202    0.1
  6191.827   747.8968    0.1
  6191.844   748.0506    0.1
  6191.862   747.5465    0.1
  6191.879   747.4785    0.1
  6191.897   750.0940    0.1
  6191.914   752.6079    0.1
  6191.931   754.0645    0.1
  6191.949   750.6859    0.1
