#  wavelength    Flux         Std.Dev.
#  [Angstroem]   [F(5500)]    [N/A]

  6270.016   531.2173    0.1
  6270.033   559.0968    0.1
  6270.050   586.1397    0.1
  6270.068   611.3457    0.1
  6270.085   640.5292    0.1
  6270.103   663.0444    0.1
  6270.120   688.8883    0.1
  6270.137   710.1025    0.1
  6270.155   725.2905    0.1
  6270.172   743.5096    0.1
  6270.190   755.1749    0.1
  6270.207   764.8181    0.1
  6270.224   774.6902    0.1
  6270.242   781.1799    0.1
  6270.259   784.3844    0.1
  6270.277   787.6607    0.1
  6270.294   791.7047    0.1
  6270.311   794.5957    0.1
  6270.329   795.2675    0.1
  6270.346   793.3995    0.1
  6270.364   791.2578    0.1
  6270.381   790.0658    0.1
  6270.398   788.9599    0.1
  6270.416   789.5808    0.1
  6270.433   788.1211    0.1
  6270.451   786.4171    0.1
  6270.468   785.3181    0.1
  6270.485   782.6277    0.1
  6270.503   781.1510    0.1
  6270.520   779.8987    0.1
  6270.538   778.9603    0.1
  6270.555   778.4417    0.1
  6270.572   779.1619    0.1
  6270.590   779.1100    0.1
  6270.607   777.6232    0.1
  6270.625   776.2588    0.1
  6270.642   777.9383    0.1
  6270.659   778.8772    0.1
  6270.677   774.7056    0.1
  6270.694   771.1179    0.1
  6270.712   767.7220    0.1
  6270.729   763.6030    0.1
  6270.746   759.2964    0.1
  6270.764   749.0082    0.1
  6270.781   739.9709    0.1
  6270.799   731.0170    0.1
  6270.816   716.5961    0.1
  6270.833   703.4484    0.1
  6270.851   685.9015    0.1
  6270.868   669.2649    0.1
  6270.886   654.9620    0.1
  6270.903   638.2489    0.1
  6270.920   624.6769    0.1
  6270.938   611.1235    0.1
  6270.955   601.4419    0.1
  6270.973   596.2173    0.1
  6270.990   590.8152    0.1
  6271.007   591.1980    0.1
  6271.025   594.9512    0.1
  6271.042   603.5704    0.1
  6271.060   613.0161    0.1
  6271.077   625.3629    0.1
  6271.094   639.5927    0.1
  6271.112   651.3482    0.1
  6271.129   668.0739    0.1
  6271.147   680.8173    0.1
  6271.164   691.7682    0.1
  6271.181   703.7910    0.1
  6271.199   711.1370    0.1
  6271.216   716.5443    0.1
  6271.234   719.7077    0.1
  6271.251   723.1640    0.1
  6271.268   723.6703    0.1
  6271.286   722.9500    0.1
  6271.303   722.8460    0.1
  6271.321   720.6356    0.1
  6271.338   717.0722    0.1
  6271.355   710.8933    0.1
  6271.373   706.8337    0.1
  6271.390   703.9482    0.1
  6271.408   701.0000    0.1
  6271.425   698.6076    0.1
  6271.442   696.3887    0.1
  6271.460   696.2792    0.1
  6271.477   697.5277    0.1
  6271.495   704.9955    0.1
  6271.512   709.4485    0.1
  6271.529   712.1821    0.1
  6271.547   716.3198    0.1
  6271.564   720.0308    0.1
  6271.582   725.2386    0.1
  6271.599   729.2745    0.1
  6271.616   732.0676    0.1
  6271.634   737.6576    0.1
  6271.651   740.5354    0.1
  6271.669   741.6033    0.1
  6271.686   742.6525    0.1
  6271.703   742.8108    0.1
  6271.721   744.7698    0.1
  6271.738   747.2518    0.1
  6271.756   748.1292    0.1
  6271.773   748.9971    0.1
  6271.790   751.6874    0.1
  6271.808   755.7362    0.1
  6271.825   757.2683    0.1
  6271.843   758.9420    0.1
  6271.860   762.6958    0.1
  6271.877   766.4722    0.1
  6271.895   767.6415    0.1
  6271.912   770.7469    0.1
  6271.930   773.1256    0.1
  6271.947   774.2242    0.1
  6271.964   775.9481    0.1
  6271.982   776.1486    0.1
  6271.999   773.4757    0.1
  6272.017   772.8460    0.1
  6272.034   773.7646    0.1
  6272.051   773.9619    0.1
  6272.069   773.1693    0.1
  6272.086   770.4903    0.1
  6272.104   769.4247    0.1
  6272.121   768.4943    0.1
  6272.138   765.4851    0.1
  6272.156   763.0748    0.1
  6272.173   760.5415    0.1
  6272.191   754.9824    0.1
  6272.208   751.7513    0.1
  6272.225   750.6535    0.1
  6272.243   747.7209    0.1
  6272.260   746.0466    0.1
  6272.277   744.3333    0.1
  6272.295   743.9592    0.1
  6272.312   744.7391    0.1
  6272.330   744.7764    0.1
  6272.347   744.3568    0.1
  6272.364   744.3000    0.1
  6272.382   746.7386    0.1
  6272.399   750.5359    0.1
  6272.417   754.4137    0.1
  6272.434   755.9816    0.1
  6272.451   756.8485    0.1
  6272.469   763.0026    0.1
  6272.486   767.2573    0.1
  6272.504   768.5486    0.1
  6272.521   769.5062    0.1
  6272.538   770.1609    0.1
  6272.556   770.6363    0.1
  6272.573   769.1452    0.1
  6272.591   765.8722    0.1
  6272.608   766.0306    0.1
  6272.625   766.3862    0.1
  6272.643   764.9098    0.1
  6272.660   762.9929    0.1
  6272.678   761.8779    0.1
  6272.695   756.3415    0.1
  6272.712   753.4728    0.1
  6272.730   753.0099    0.1
  6272.747   752.0907    0.1
  6272.765   752.4350    0.1
  6272.782   750.5836    0.1
  6272.799   750.8239    0.1
  6272.817   752.2904    0.1
  6272.834   752.1388    0.1
  6272.852   753.1563    0.1
  6272.869   756.0241    0.1
  6272.886   757.7457    0.1
  6272.904   758.1446    0.1
  6272.921   762.0064    0.1
  6272.939   764.6634    0.1
  6272.956   766.3705    0.1
  6272.973   767.2549    0.1
  6272.991   768.0669    0.1
  6273.008   768.2299    0.1
  6273.026   767.5948    0.1
  6273.043   767.2441    0.1
  6273.060   767.7160    0.1
  6273.078   768.2401    0.1
  6273.095   768.7569    0.1
  6273.113   771.0297    0.1
  6273.130   771.8966    0.1
  6273.147   771.5496    0.1
  6273.165   771.2543    0.1
  6273.182   771.7647    0.1
  6273.200   775.5082    0.1
  6273.217   778.6545    0.1
  6273.234   780.7121    0.1
  6273.252   782.2969    0.1
  6273.269   782.9121    0.1
  6273.287   783.3627    0.1
  6273.304   782.9099    0.1
  6273.321   783.0787    0.1
  6273.339   786.9639    0.1
  6273.356   786.8681    0.1
  6273.374   784.5408    0.1
  6273.391   782.8378    0.1
  6273.408   781.4796    0.1
  6273.426   779.4727    0.1
  6273.443   776.0688    0.1
  6273.461   773.5229    0.1
  6273.478   770.8956    0.1
  6273.495   767.2717    0.1
  6273.513   763.7284    0.1
  6273.530   759.4536    0.1
  6273.548   756.5021    0.1
  6273.565   753.5538    0.1
  6273.582   751.6076    0.1
  6273.600   750.2722    0.1
  6273.617   746.7915    0.1
  6273.635   743.4682    0.1
  6273.652   741.1414    0.1
  6273.669   741.6139    0.1
  6273.687   742.4395    0.1
  6273.704   743.1303    0.1
  6273.722   745.1723    0.1
  6273.739   747.0358    0.1
  6273.756   749.8858    0.1
  6273.774   753.5574    0.1
  6273.791   757.0222    0.1
  6273.809   764.6240    0.1
  6273.826   766.8853    0.1
  6273.843   765.1127    0.1
  6273.861   768.8885    0.1
  6273.878   773.1558    0.1
  6273.896   777.9915    0.1
  6273.913   780.1294    0.1
  6273.930   780.6386    0.1
  6273.948   783.6291    0.1
  6273.965   785.4633    0.1
  6273.983   786.4227    0.1
  6274.000   784.4426    0.1
  6274.017   783.0460    0.1
  6274.035   783.9852    0.1
  6274.052   782.7107    0.1
  6274.070   780.5372    0.1
  6274.087   775.7666    0.1
  6274.104   770.0863    0.1
  6274.122   762.9738    0.1
  6274.139   752.5256    0.1
  6274.157   744.0676    0.1
  6274.174   731.8469    0.1
  6274.191   718.5264    0.1
  6274.209   708.4164    0.1
  6274.226   688.6710    0.1
  6274.244   673.3042    0.1
  6274.261   660.1927    0.1
  6274.278   643.0277    0.1
  6274.296   631.1884    0.1
  6274.313   619.4478    0.1
  6274.331   609.2868    0.1
  6274.348   603.3860    0.1
  6274.365   603.1275    0.1
  6274.383   606.2363    0.1
  6274.400   610.7564    0.1
  6274.418   622.3122    0.1
  6274.435   633.1081    0.1
  6274.452   647.3397    0.1
  6274.470   664.5549    0.1
  6274.487   677.7602    0.1
  6274.505   695.2970    0.1
  6274.522   709.4432    0.1
  6274.539   720.8955    0.1
  6274.557   732.3136    0.1
  6274.574   739.1930    0.1
  6274.591   745.6459    0.1
  6274.609   750.3846    0.1
  6274.626   753.1812    0.1
  6274.644   758.1346    0.1
  6274.661   761.6759    0.1
  6274.678   763.9243    0.1
  6274.696   765.2484    0.1
  6274.713   767.4423    0.1
  6274.731   771.6766    0.1
  6274.748   770.5119    0.1
  6274.765   769.2294    0.1
  6274.783   773.8123    0.1
  6274.800   775.4496    0.1
  6274.818   774.8913    0.1
  6274.835   776.9741    0.1
  6274.852   778.5641    0.1
  6274.870   779.5229    0.1
  6274.887   777.4106    0.1
  6274.905   775.6863    0.1
  6274.922   775.9723    0.1
  6274.939   776.6400    0.1
  6274.957   777.0170    0.1
  6274.974   776.3557    0.1
  6274.992   776.6886    0.1
  6275.009   777.9660    0.1
  6275.026   777.0257    0.1
  6275.044   776.4352    0.1
  6275.061   777.6829    0.1
  6275.079   780.0355    0.1
  6275.096   781.7901    0.1
  6275.113   782.2437    0.1
  6275.131   783.5982    0.1
  6275.148   785.7217    0.1
  6275.166   786.4884    0.1
  6275.183   785.6774    0.1
  6275.200   783.4585    0.1
  6275.218   782.6775    0.1
  6275.235   782.6226    0.1
  6275.253   781.9402    0.1
  6275.270   777.7874    0.1
  6275.287   772.4856    0.1
  6275.305   768.5935    0.1
  6275.322   766.1790    0.1
  6275.340   763.4031    0.1
  6275.357   760.0101    0.1
  6275.374   757.0952    0.1
  6275.392   751.7652    0.1
  6275.409   747.7532    0.1
  6275.427   745.4802    0.1
  6275.444   743.6348    0.1
  6275.461   743.5202    0.1
  6275.479   744.4817    0.1
  6275.496   746.3729    0.1
  6275.514   748.6845    0.1
  6275.531   753.5153    0.1
  6275.548   755.4692    0.1
  6275.566   755.9915    0.1
  6275.583   761.9589    0.1
  6275.601   766.2477    0.1
  6275.618   768.8484    0.1
  6275.635   772.4838    0.1
  6275.653   775.2643    0.1
  6275.670   778.6289    0.1
  6275.688   780.4558    0.1
  6275.705   780.6101    0.1
  6275.722   778.7349    0.1
  6275.740   778.0639    0.1
  6275.757   778.3830    0.1
  6275.775   778.5048    0.1
  6275.792   777.4246    0.1
  6275.809   775.2918    0.1
  6275.827   776.2756    0.1
  6275.844   776.9016    0.1
  6275.862   774.5595    0.1
  6275.879   773.4522    0.1
  6275.896   773.3590    0.1
  6275.914   773.0800    0.1
  6275.931   772.6317    0.1
  6275.949   772.0942    0.1
  6275.966   771.6355    0.1
  6275.983   771.1580    0.1
  6276.001   770.1673    0.1
  6276.018   765.7137    0.1
  6276.036   760.0110    0.1
  6276.053   743.8744    0.1
  6276.070   718.2354    0.1
  6276.088   691.6141    0.1
  6276.105   656.5699    0.1
  6276.123   641.9920    0.1
  6276.140   641.8872    0.1
  6276.157   664.3315    0.1
  6276.175   688.3154    0.1
  6276.192   721.8521    0.1
  6276.210   743.0568    0.1
  6276.227   752.3598    0.1
  6276.244   753.3563    0.1
  6276.262   745.0625    0.1
  6276.279   731.3239    0.1
  6276.297   696.6862    0.1
  6276.314   667.6110    0.1
  6276.331   636.7392    0.1
  6276.349   636.6007    0.1
  6276.366   651.2235    0.1
  6276.384   681.1705    0.1
  6276.401   699.4949    0.1
  6276.418   707.7911    0.1
  6276.436   705.9585    0.1
  6276.453   703.6031    0.1
  6276.471   704.0491    0.1
  6276.488   714.2870    0.1
  6276.505   724.8398    0.1
  6276.523   738.6426    0.1
  6276.540   747.0097    0.1
  6276.558   750.8015    0.1
  6276.575   757.8459    0.1
  6276.592   761.2309    0.1
  6276.610   762.2658    0.1
  6276.627   764.4095    0.1
  6276.645   764.8052    0.1
  6276.662   762.8340    0.1
  6276.679   757.8954    0.1
  6276.697   754.3387    0.1
  6276.714   754.2136    0.1
  6276.732   747.9242    0.1
  6276.749   738.7543    0.1
  6276.766   712.0168    0.1
  6276.784   682.6422    0.1
  6276.801   647.1871    0.1
  6276.818   601.5481    0.1
  6276.836   582.1017    0.1
  6276.853   593.8574    0.1
  6276.871   614.2137    0.1
  6276.888   627.5853    0.1
  6276.905   623.7489    0.1
  6276.923   609.2192    0.1
  6276.940   592.4145    0.1
  6276.958   582.6176    0.1
  6276.975   582.6118    0.1
  6276.992   588.7409    0.1
  6277.010   604.6094    0.1
  6277.027   618.5838    0.1
  6277.045   635.7158    0.1
  6277.062   648.2026    0.1
  6277.079   654.7295    0.1
  6277.097   655.0070    0.1
  6277.114   644.3249    0.1
  6277.132   626.8860    0.1
  6277.149   611.3159    0.1
  6277.166   614.4121    0.1
  6277.184   640.9367    0.1
  6277.201   673.4905    0.1
  6277.219   695.5087    0.1
  6277.236   718.2407    0.1
  6277.253   726.2511    0.1
  6277.271   725.2190    0.1
  6277.288   716.9208    0.1
  6277.306   713.9676    0.1
  6277.323   716.4710    0.1
  6277.340   727.5055    0.1
  6277.358   736.7686    0.1
  6277.375   745.3803    0.1
  6277.393   750.4304    0.1
  6277.410   751.8815    0.1
  6277.427   749.8017    0.1
  6277.445   751.1802    0.1
  6277.462   754.9147    0.1
  6277.480   755.1140    0.1
  6277.497   748.3860    0.1
  6277.514   734.2335    0.1
  6277.532   706.5286    0.1
  6277.549   675.4816    0.1
  6277.567   615.5963    0.1
  6277.584   562.7053    0.1
  6277.601   533.1479    0.1
  6277.619   526.2953    0.1
  6277.636   542.7797    0.1
  6277.654   569.0479    0.1
  6277.671   628.6544    0.1
  6277.688   672.9383    0.1
  6277.706   710.2467    0.1
  6277.723   734.6873    0.1
  6277.741   743.1333    0.1
  6277.758   744.6227    0.1
  6277.775   740.8905    0.1
  6277.793   736.1265    0.1
  6277.810   724.2549    0.1
  6277.828   716.5320    0.1
  6277.845   711.7209    0.1
  6277.862   691.7990    0.1
  6277.880   677.5425    0.1
  6277.897   668.9663    0.1
  6277.915   670.6217    0.1
  6277.932   676.2117    0.1
  6277.949   685.4051    0.1
  6277.967   693.4138    0.1
  6277.984   698.6462    0.1
  6278.002   709.7932    0.1
  6278.019   716.7132    0.1
  6278.036   720.7775    0.1
  6278.054   727.6510    0.1
  6278.071   733.0990    0.1
  6278.089   739.2303    0.1
  6278.106   747.3369    0.1
  6278.123   752.9532    0.1
  6278.141   757.6944    0.1
  6278.158   761.8715    0.1
  6278.176   764.8954    0.1
  6278.193   765.9152    0.1
  6278.210   767.4737    0.1
  6278.228   770.1040    0.1
  6278.245   769.9089    0.1
  6278.263   769.2680    0.1
  6278.280   769.4352    0.1
  6278.297   763.6432    0.1
  6278.315   755.6465    0.1
  6278.332   738.7889    0.1
  6278.350   705.6278    0.1
  6278.367   673.0127    0.1
  6278.384   625.3007    0.1
  6278.402   616.1144    0.1
  6278.419   633.6106    0.1
  6278.437   678.7204    0.1
  6278.454   713.3442    0.1
  6278.471   742.3547    0.1
  6278.489   757.5032    0.1
  6278.506   760.6783    0.1
  6278.524   758.8599    0.1
  6278.541   744.7030    0.1
  6278.558   727.3999    0.1
  6278.576   678.4366    0.1
  6278.593   633.5137    0.1
  6278.611   595.2786    0.1
  6278.628   595.3319    0.1
  6278.645   620.2426    0.1
  6278.663   666.1434    0.1
  6278.680   711.2861    0.1
  6278.698   736.1977    0.1
  6278.715   752.9021    0.1
  6278.732   758.1184    0.1
  6278.750   758.1041    0.1
  6278.767   759.2728    0.1
  6278.785   760.2666    0.1
  6278.802   761.0220    0.1
  6278.819   760.8627    0.1
  6278.837   759.6120    0.1
  6278.854   757.0835    0.1
  6278.872   752.5993    0.1
  6278.889   748.4070    0.1
  6278.906   741.7833    0.1
  6278.924   735.0389    0.1
  6278.941   730.2928    0.1
  6278.959   725.1194    0.1
  6278.976   718.1935    0.1
  6278.993   710.4946    0.1
  6279.011   703.8698    0.1
  6279.028   701.5586    0.1
  6279.045   701.3499    0.1
  6279.063   702.2034    0.1
  6279.080   704.0341    0.1
  6279.098   708.8043    0.1
  6279.115   712.7849    0.1
  6279.132   715.5470    0.1
  6279.150   722.8822    0.1
  6279.167   726.0556    0.1
  6279.185   726.3042    0.1
  6279.202   723.7102    0.1
  6279.219   720.6207    0.1
  6279.237   717.0605    0.1
  6279.254   708.7458    0.1
  6279.272   698.8734    0.1
  6279.289   681.6301    0.1
  6279.306   661.6540    0.1
  6279.324   644.8828    0.1
  6279.341   612.3300    0.1
  6279.359   574.0837    0.1
  6279.376   541.1608    0.1
  6279.393   479.8892    0.1
  6279.411   453.3482    0.1
  6279.428   449.5373    0.1
  6279.446   471.3136    0.1
  6279.463   494.2886    0.1
  6279.480   519.7147    0.1
  6279.498   545.7384    0.1
  6279.515   563.5226    0.1
  6279.533   585.6008    0.1
  6279.550   604.6273    0.1
  6279.567   618.0734    0.1
  6279.585   640.1934    0.1
  6279.602   658.9525    0.1
  6279.620   674.9514    0.1
  6279.637   693.1956    0.1
  6279.654   704.2887    0.1
  6279.672   713.8639    0.1
  6279.689   724.9129    0.1
  6279.707   731.3894    0.1
  6279.724   735.6656    0.1
  6279.741   736.9895    0.1
  6279.759   737.4029    0.1
  6279.776   740.8356    0.1
  6279.794   740.2103    0.1
  6279.811   737.1658    0.1
  6279.828   725.5531    0.1
  6279.846   706.3295    0.1
  6279.863   678.8963    0.1
  6279.881   625.3036    0.1
  6279.898   592.0978    0.1
  6279.915   575.0916    0.1
  6279.933   602.2326    0.1
  6279.950   637.2561    0.1
  6279.968   683.8279    0.1
  6279.985   714.7561    0.1
  6280.002   730.1881    0.1
  6280.020   739.9912    0.1
  6280.037   739.7054    0.1
  6280.055   734.8455    0.1
  6280.072   718.1654    0.1
  6280.089   703.6717    0.1
  6280.107   688.8366    0.1
  6280.124   663.2314    0.1
  6280.142   641.2950    0.1
  6280.159   612.8622    0.1
  6280.176   578.2365    0.1
  6280.194   550.7601    0.1
  6280.211   511.4773    0.1
  6280.229   477.0966    0.1
  6280.246   451.6236    0.1
  6280.263   414.9860    0.1
  6280.281   390.6634    0.1
  6280.298   371.8785    0.1
  6280.316   356.0829    0.1
  6280.333   350.6982    0.1
  6280.350   351.2479    0.1
  6280.368   359.7324    0.1
  6280.385   370.7342    0.1
  6280.403   392.0099    0.1
  6280.420   417.9870    0.1
  6280.437   439.6221    0.1
  6280.455   474.4064    0.1
  6280.472   506.6976    0.1
  6280.490   533.6444    0.1
  6280.507   568.7154    0.1
  6280.524   595.0723    0.1
  6280.542   620.5830    0.1
  6280.559   648.0071    0.1
  6280.577   666.2862    0.1
  6280.594   684.4787    0.1
  6280.611   692.8918    0.1
  6280.629   691.5753    0.1
  6280.646   678.0375    0.1
  6280.664   647.8434    0.1
  6280.681   620.7785    0.1
  6280.698   610.5227    0.1
  6280.716   629.9683    0.1
  6280.733   661.6311    0.1
  6280.751   707.0226    0.1
  6280.768   733.8325    0.1
  6280.785   750.4493    0.1
  6280.803   761.9608    0.1
  6280.820   766.0222    0.1
  6280.838   766.8035    0.1
  6280.855   766.5308    0.1
  6280.872   765.6609    0.1
  6280.890   763.2129    0.1
  6280.907   761.7911    0.1
  6280.925   761.0231    0.1
  6280.942   757.6514    0.1
  6280.959   754.2639    0.1
  6280.977   751.5129    0.1
  6280.994   748.3933    0.1
  6281.012   746.4753    0.1
  6281.029   745.0452    0.1
  6281.046   742.7309    0.1
  6281.064   741.7754    0.1
  6281.081   742.5569    0.1
  6281.099   743.2908    0.1
  6281.116   743.4812    0.1
  6281.133   743.0870    0.1
  6281.151   743.4134    0.1
  6281.168   744.1145    0.1
  6281.186   745.8539    0.1
  6281.203   749.4161    0.1
  6281.220   753.5377    0.1
  6281.238   756.3094    0.1
  6281.255   757.0949    0.1
  6281.273   757.2928    0.1
  6281.290   760.3965    0.1
  6281.307   762.2480    0.1
  6281.325   762.0600    0.1
  6281.342   763.1027    0.1
  6281.359   763.1319    0.1
  6281.377   758.8663    0.1
  6281.394   747.5700    0.1
  6281.412   734.0388    0.1
  6281.429   696.0718    0.1
  6281.446   656.1754    0.1
  6281.464   624.6338    0.1
  6281.481   622.8980    0.1
  6281.499   643.6364    0.1
  6281.516   674.5535    0.1
  6281.533   711.3957    0.1
  6281.551   731.5095    0.1
  6281.568   743.4468    0.1
  6281.586   749.5963    0.1
  6281.603   750.8717    0.1
  6281.620   749.5736    0.1
  6281.638   747.1588    0.1
  6281.655   744.8221    0.1
  6281.673   739.9123    0.1
  6281.690   737.0262    0.1
  6281.707   735.8934    0.1
  6281.725   732.7110    0.1
  6281.742   731.8081    0.1
  6281.760   732.5456    0.1
  6281.777   730.6845    0.1
  6281.794   731.2101    0.1
  6281.812   735.1892    0.1
  6281.829   735.5241    0.1
  6281.847   736.0584    0.1
  6281.864   740.9482    0.1
  6281.881   744.9866    0.1
  6281.899   746.6956    0.1
  6281.916   747.1817    0.1
  6281.934   749.6008    0.1
  6281.951   752.1622    0.1
